;  Optical constants for Au
;  
;  Concatenation of:
; 
;  Au_llnl_cxro + Au_palik
;   
;    Lambda (A)            n            k
;-----------------------------------------
      0.12398425       0.99999968    9.2453537e-09
      0.12423272       0.99999968    9.3128213e-09
      0.12460729       0.99999968    9.4148805e-09
      0.12523662       0.99999968    9.5884077e-09
      0.12587234       0.99999967    9.7665349e-09
      0.12612843       0.99999967    9.8386795e-09
      0.12651454       0.99999967    9.9478498e-09
      0.12690302       0.99999967    1.0059841e-08
      0.12742472       0.99999967    1.0211022e-08
      0.12795072       0.99999966    1.0364361e-08
      0.12848109       0.99999966    1.0519897e-08
      0.12888176       0.99999966    1.0640214e-08
      0.12941989       0.99999966    1.0802635e-08
      0.12996253       0.99999965    1.0967457e-08
      0.13050974       0.99999965    1.1134632e-08
      0.13078507       0.99999965    1.1221217e-08
      0.13120026       0.99999965    1.1352306e-08
      0.13147853       0.99999964    1.1440485e-08
      0.13189814       0.99999964    1.1573993e-08
      0.13217937       0.99999964    1.1664960e-08
      0.13260348       0.99999964    1.1802720e-08
      0.13288773       0.99999964    1.1895380e-08
      0.13331640       0.99999964    1.2035710e-08
      0.13374784       0.99999963    1.2179126e-08
      0.13432746       0.99999963    1.2372812e-08
      0.13491213       0.99999963    1.2569463e-08
      0.13550191       0.99999962    1.2769039e-08
      0.13594764       0.99999962    1.2922259e-08
      0.13654653       0.99999962    1.3129260e-08
      0.13715072       0.99999961    1.3339477e-08
      0.13776028       0.99999961    1.3552870e-08
      0.13806709       0.99999961    1.3660416e-08
      0.13852989       0.99999961    1.3823262e-08
      0.13884015       0.99999961    1.3932838e-08
      0.13930815       0.99999960    1.4098893e-08
      0.13962190       0.99999960    1.4210599e-08
      0.14009520       0.99999960    1.4379836e-08
      0.14041251       0.99999960    1.4493775e-08
      0.14089119       0.99999959    1.4666324e-08
      0.14121213       0.99999959    1.4783238e-08
      0.14169629       0.99999959    1.4960302e-08
      0.14202090       0.99999959    1.5079522e-08
      0.14251063       0.99999959    1.5260088e-08
      0.14283900       0.99999958    1.5385725e-08
      0.14333439       0.99999958    1.5576057e-08
      0.14366657       0.99999958    1.5705030e-08
      0.14416773       0.99999958    1.5900456e-08
      0.14450379       0.99999958    1.6038112e-08
      0.14501082       0.99999957    1.6246661e-08
      0.14535082       0.99999957    1.6388132e-08
      0.14586382       0.99999957    1.6602529e-08
      0.14603563       0.99999957    1.6676969e-08
      0.14620784       0.99999957    1.6751714e-08
      0.14646692       0.99999957    1.6864379e-08
      0.14672692       0.99999956    1.6977796e-08
      0.14690077       0.99999956    1.7049776e-08
      0.14707503       0.99999956    1.7122108e-08
      0.14733720       0.99999956    1.7231102e-08
      0.14760030       0.99999956    1.7340767e-08
      0.14786434       0.99999956    1.7444099e-08
      0.14812933       0.99999956    1.7548003e-08
      0.14830652       0.99999956    1.7618207e-08
      0.14848413       0.99999956    1.7688697e-08
      0.14866217       0.99999955    1.7759533e-08
      0.14884064       0.99999955    1.7830600e-08
      0.14901953       0.99999955    1.7903134e-08
      0.14919886       0.99999955    1.7975966e-08
      0.14937861       0.99999955    1.8050043e-08
      0.14955881       0.99999955    1.8124484e-08
      0.14973943       0.99999955    1.8207785e-08
      0.14992050       0.99999955    1.8291377e-08
      0.15010200       0.99999955    1.8375618e-08
      0.15028394       0.99999955    1.8460215e-08
      0.15042981       0.99999955    1.8526698e-08
      0.15055768       0.99999955    1.8585107e-08
      0.15068577       0.99999955    1.8643628e-08
      0.15083242       0.99999954    1.8710729e-08
      0.15101614       0.99999954    1.8784548e-08
      0.15110817       0.99999954    1.8821541e-08
      0.15120030       0.99999954    1.8858611e-08
      0.15129256       0.99999954    1.8897030e-08
      0.15138492       0.99999954    1.8935590e-08
      0.15147740       0.99999954    1.8974230e-08
      0.15156999       0.99999954    1.9012890e-08
      0.15166269       0.99999954    1.9058819e-08
      0.15175551       0.99999954    1.9104908e-08
      0.15184844       0.99999954    1.9151034e-08
      0.15194148       0.99999954    1.9197320e-08
      0.15203464       0.99999954    1.9238624e-08
      0.15209059       0.99999954    1.9263447e-08
      0.15212791       0.99999954    1.9280014e-08
      0.15218393       0.99999954    1.9304890e-08
      0.15222130       0.99999954    1.9321492e-08
      0.15227739       0.99999954    1.9346420e-08
      0.15231480       0.99999954    1.9363056e-08
      0.15235224       0.99999954    1.9376817e-08
      0.15240842       0.99999954    1.9397572e-08
      0.15246465       0.99999954    1.9418290e-08
      0.15250215       0.99999954    1.9432096e-08
      0.15255845       0.99999954    1.9461302e-08
      0.15259600       0.99999954    1.9480753e-08
      0.15261478       0.99999954    1.9491657e-08
      0.15263357       0.99999954    1.9502566e-08
      0.15266176       0.99999954    1.9518907e-08
      0.15268996       0.99999954    1.9535320e-08
      0.15270877       0.99999954    1.9534141e-08
      0.15272758       0.99999954    1.9533023e-08
      0.15275581       0.99999954    1.9526769e-08
      0.15278404       0.99999954    1.9520447e-08
      0.15280287       0.99999954    1.9530021e-08
      0.15281229       0.99999954    1.9534779e-08
      0.15282171       0.99999954    1.9539599e-08
      0.15283489       0.99999954    1.9556584e-08
      0.15284997       0.99999954    1.9575974e-08
      0.15286316       0.99999954    1.9593713e-08
      0.15287824       0.99999955    1.9613985e-08
      0.15289143       0.99999955    1.9622696e-08
      0.15290652       0.99999955    1.9617093e-08
      0.15291972       0.99999955    1.9593412e-08
      0.15293481       0.99999955    1.9542202e-08
      0.15294424       0.99999955    1.9498018e-08
      0.15295368       0.99999955    1.9447378e-08
      0.15296311       0.99999955    1.9394928e-08
      0.15297255       0.99999955    1.9348602e-08
      0.15298199       0.99999955    1.9318506e-08
      0.15298576       0.99999955    1.9317971e-08
      0.15299142       0.99999955    1.9317170e-08
      0.15299520       0.99999955    1.9334926e-08
      0.15300086       0.99999955    1.9361594e-08
      0.15300464       0.99999955    1.9406391e-08
      0.15300747       0.99999955    1.9440410e-08
      0.15301030       0.99999955    1.9474122e-08
      0.15301219       0.99999955    1.9515037e-08
      0.15301408       0.99999955    1.9555769e-08
      0.15301691       0.99999955    1.9617955e-08
      0.15301975       0.99999955    1.9679711e-08
      0.15302258       0.99999955    1.9783649e-08
      0.15302541       0.99999955    1.9887656e-08
      0.15302825       0.99999955    1.9992664e-08
      0.15303108       0.99999955    2.0097803e-08
      0.15303391       0.99999955    2.0258471e-08
      0.15303675       0.99999955    2.0418220e-08
      0.15303958       0.99999955    2.0581641e-08
      0.15304241       0.99999955    2.0783477e-08
      0.15304525       0.99999956    2.1007912e-08
      0.15304808       0.99999956    2.1233667e-08
      0.15305016       0.99999956    2.1391931e-08
      0.15305205       0.99999956    1.4922923e-08
      0.15305526       0.99999956    9.0292822e-09
      0.15305677       0.99999955    4.4693641e-09
      0.15305753       0.99999955    4.0407823e-09
      0.15305828       0.99999955    4.0408593e-09
      0.15305979       0.99999956    6.3040894e-08
      0.15306131       0.99999957    3.3599410e-08
      0.15306206       0.99999957    1.8878231e-08
      0.15306244       0.99999958    1.1373235e-08
      0.15306263       0.99999958    7.6207074e-09
      0.15306282       0.99999958    4.1567810e-09
      0.15306282       0.99999958    4.1567810e-09
      0.15306490       0.99999957    4.0415251e-09
      0.15306698       0.99999957    4.0417343e-09
      0.15306981       0.99999956    4.0420143e-09
      0.15307264       0.99999956    4.0423006e-09
      0.15307548       0.99999956    4.0425868e-09
      0.15307831       0.99999956    4.0428731e-09
      0.15308115       0.99999956    4.0431532e-09
      0.15308398       0.99999956    4.0434395e-09
      0.15308587       0.99999955    4.0436263e-09
      0.15308777       0.99999955    4.0438193e-09
      0.15309060       0.99999955    4.0440994e-09
      0.15309344       0.99999955    4.0443858e-09
      0.15309627       0.99999955    4.0446722e-09
      0.15309911       0.99999955    4.0449587e-09
      0.15310194       0.99999955    4.0452389e-09
      0.15310478       0.99999955    4.0455254e-09
      0.15310856       0.99999955    4.0459053e-09
      0.15311234       0.99999955    4.0462852e-09
      0.15311612       0.99999955    4.0466652e-09
      0.15311991       0.99999955    4.0470452e-09
      0.15312558       0.99999955    4.0476122e-09
      0.15313314       0.99999955    4.0483724e-09
      0.15313882       0.99999955    4.0489395e-09
      0.15314638       0.99999955    4.0497000e-09
      0.15315395       0.99999955    4.0504605e-09
      0.15316152       0.99999955    4.0512212e-09
      0.15316909       0.99999955    4.0519758e-09
      0.15317476       0.99999955    4.0525497e-09
      0.15318233       0.99999955    4.0533107e-09
      0.15318991       0.99999955    4.0540657e-09
      0.15320316       0.99999954    4.0554012e-09
      0.15321830       0.99999954    4.0569182e-09
      0.15322777       0.99999954    4.0578674e-09
      0.15323724       0.99999954    4.0588230e-09
      0.15325618       0.99999954    4.0607223e-09
      0.15327513       0.99999954    4.0626287e-09
      0.15329408       0.99999954    4.0645297e-09
      0.15332251       0.99999954    4.0673890e-09
      0.15335096       0.99999954    4.0702501e-09
      0.15336993       0.99999954    4.0721606e-09
      0.15338890       0.99999954    4.0740657e-09
      0.15341737       0.99999954    4.0769311e-09
      0.15344585       0.99999954    4.0797983e-09
      0.15348385       0.99999954    4.0836221e-09
      0.15352185       0.99999954    4.0874492e-09
      0.15355037       0.99999954    4.0903232e-09
      0.15357890       0.99999954    4.0931928e-09
      0.15361696       0.99999954    4.0970344e-09
      0.15365504       0.99999953    4.1008730e-09
      0.15369313       0.99999953    4.1047149e-09
      0.15373125       0.99999953    4.1085601e-09
      0.15378845       0.99999953    4.1143311e-09
      0.15386479       0.99999953    4.1220477e-09
      0.15394121       0.99999953    4.1297713e-09
      0.15401770       0.99999953    4.1375082e-09
      0.15407512       0.99999953    4.1433669e-09
      0.15411342       0.99999953    4.1472831e-09
      0.15420927       0.99999953    4.1570728e-09
      0.15430523       0.99999953    4.1668900e-09
      0.15440131       0.99999953    4.1767221e-09
      0.15447826       0.99999953    4.1846031e-09
      0.15453602       0.99999953    4.1905292e-09
      0.15461311       0.99999952    4.1984341e-09
      0.15469027       0.99999952    4.2063527e-09
      0.15482549       0.99999952    4.2202496e-09
      0.15490286       0.99999952    4.2282124e-09
      0.15498031       0.99999952    4.2361826e-09
      0.15513545       0.99999952    4.2523814e-09
      0.15527145       0.99999952    4.2666032e-09
      0.15540768       0.99999952    4.2808684e-09
      0.15556368       0.99999952    4.2972230e-09
      0.15575911       0.99999951    4.3177434e-09
      0.15595503       0.99999951    4.3383599e-09
      0.15615145       0.99999951    4.3590602e-09
      0.15634836       0.99999951    4.3798577e-09
      0.15648650       0.99999951    4.3944695e-09
      0.15664466       0.99999951    4.4112218e-09
      0.15678332       0.99999951    4.4259299e-09
      0.15694209       0.99999951    4.4427928e-09
      0.15714100       0.99999950    4.4639515e-09
      0.15734042       0.99999950    4.4852099e-09
      0.15754034       0.99999950    4.5065554e-09
      0.15774078       0.99999950    4.5280018e-09
      0.15804238       0.99999950    4.5611330e-09
      0.15834515       0.99999950    4.5944785e-09
      0.15875064       0.99999949    4.6392947e-09
      0.15915822       0.99999949    4.6845045e-09
      0.15956789       0.99999949    4.7301256e-09
      0.15997968       0.99999948    4.7761491e-09
      0.16039360       0.99999948    4.8225930e-09
      0.16078881       0.99999948    4.8670966e-09
      0.16099760       0.99999948    4.8911972e-09
      0.16122789       0.99999947    4.9178281e-09
      0.16185933       0.99999947    4.9911428e-09
      0.16249574       0.99999947    5.0654608e-09
      0.16313717       0.99999946    5.1407989e-09
      0.16356761       0.99999946    5.1922989e-09
      0.16421755       0.99999945    5.2704460e-09
      0.16487267       0.99999945    5.3503901e-09
      0.16540055       0.99999944    5.4151482e-09
      0.16619873       0.99999944    5.5153890e-09
      0.16709468       0.99999943    5.6287663e-09
      0.16777300       0.99999943    5.7151939e-09
      0.16868605       0.99999942    5.8323424e-09
      0.16937739       0.99999942    5.9240404e-09
      0.17030804       0.99999941    6.0483615e-09
      0.17124896       0.99999940    6.1750682e-09
      0.17220035       0.99999940    6.3042329e-09
      0.17268001       0.99999939    6.3712413e-09
      0.17340455       0.99999939    6.4729815e-09
      0.17462570       0.99999938    6.6458750e-09
      0.17586418       0.99999937    6.8263247e-09
      0.17712036       0.99999936    7.0112703e-09
      0.17839460       0.99999935    7.2042309e-09
      0.17968732       0.99999934    7.4020771e-09
      0.18099891       0.99999933    7.6088149e-09
      0.18232978       0.99999932    7.8208551e-09
      0.18395289       0.99999931    8.0865630e-09
      0.18477534       0.99999930    8.2240663e-09
      0.18552185       0.99999930    8.3496568e-09
      0.18813998       0.99999928    8.8026043e-09
      0.19074500       0.99999926    9.2709502e-09
      0.19372539       0.99999923    9.8283535e-09
      0.19680040       0.99999921    1.0428903e-08
      0.19901164       0.99999919    1.0877017e-08
      0.20160041       0.99999917    1.1419564e-08
      0.20392146       0.99999915    1.1922500e-08
      0.20664042       0.99999912    1.2532330e-08
      0.20733152       0.99999912    1.2690537e-08
      0.20823690       0.99999911    1.2899934e-08
      0.21193889       0.99999908    1.3782795e-08
      0.21376595       0.99999906    1.4234485e-08
      0.21551234       0.99999905    1.4676300e-08
      0.21828213       0.99999902    1.5397615e-08
      0.22140045       0.99999899    1.6240338e-08
      0.22542591       0.99999895    1.7377646e-08
      0.22960046       0.99999891    1.8614115e-08
      0.23393255       0.99999887    1.9964154e-08
      0.23843125       0.99999883    2.1440511e-08
      0.24310637       0.99999878    2.3058207e-08
      0.24796850       0.99999873    2.4833599e-08
      0.24946529       0.99999872    2.5398716e-08
      0.25098026       0.99999870    2.5980109e-08
      0.25406609       0.99999867    2.7194651e-08
      0.25722873       0.99999863    2.8481973e-08
      0.26007117       0.99999860    2.9676578e-08
      0.26267850       0.99999858    3.0804266e-08
      0.26492361       0.99999855    3.1800083e-08
      0.26720744       0.99999853    3.2837155e-08
      0.26953098       0.99999850    3.3917578e-08
      0.27369592       0.99999845    3.5918788e-08
      0.27861629       0.99999840    3.8388551e-08
      0.28306906       0.99999834    4.0726304e-08
      0.28833547       0.99999828    4.3623783e-08
      0.29310697       0.99999822    4.6376437e-08
      0.29875723       0.99999815    4.9798105e-08
      0.30388297       0.99999809    5.3058869e-08
      0.30996062       0.99999801    5.7124338e-08
      0.31388418       0.99999796    5.9859740e-08
      0.31790833       0.99999791    6.2763318e-08
      0.32203701       0.99999785    6.5848240e-08
      0.32627434       0.99999779    6.9127874e-08
      0.33062467       0.99999773    7.2608820e-08
      0.33509257       0.99999767    7.6315516e-08
      0.33968288       0.99999761    8.0265477e-08
      0.34411393       0.99999754    8.4218469e-08
      0.34729482       0.99999750    8.7142373e-08
      0.35123017       0.99999744    9.0861629e-08
      0.35525573       0.99999738    9.4781294e-08
      0.35937464       0.99999732    9.8908628e-08
      0.36359018       0.99999726    1.0326700e-07
      0.36681731       0.99999721    1.0669681e-07
      0.37121033       0.99999714    1.1149825e-07
      0.37570985       0.99999707    1.1657769e-07
      0.38031979       0.99999700    1.2194987e-07
      0.38385217       0.99999694    1.2618728e-07
      0.38866536       0.99999686    1.3213222e-07
      0.39360079       0.99999678    1.3843760e-07
      0.39738542       0.99999672    1.4341911e-07
      0.40254627       0.99999663    1.5042157e-07
      0.40784293       0.99999654    1.5786430e-07
      0.41328083       0.99999645    1.6403257e-07
      0.41996528       0.99999633    1.7408797e-07
      0.42675785       0.99999621    1.8475356e-07
      0.43365996       0.99999608    1.9606433e-07
      0.44067464       0.99999596    2.0806019e-07
      0.44780188       0.99999582    2.2078045e-07
      0.45504485       0.99999569    2.3426803e-07
      0.46240522       0.99999555    2.4856897e-07
      0.46988471       0.99999540    2.6373080e-07
      0.47748323       0.99999525    2.7980150e-07
      0.48520618       0.99999510    2.9683874e-07
      0.49305362       0.99999494    3.1489578e-07
      0.50102946       0.99999477    3.3403554e-07
      0.50913375       0.99999460    3.5431802e-07
      0.51736847       0.99999443    3.7580970e-07
      0.52573570       0.99999425    3.9857928e-07
      0.53423986       0.99999406    4.2270587e-07
      0.54288101       0.99999387    4.4826152e-07
      0.55166142       0.99999367    4.7533103e-07
      0.56058349       0.99999347    5.0399830e-07
      0.56964967       0.99999326    5.3435686e-07
      0.57886523       0.99999305    5.6650826e-07
      0.58822755       0.99999282    6.0054213e-07
      0.59774203       0.99999259    6.3657338e-07
      0.60740863       0.99999236    6.7470686e-07
      0.61723320       0.99999212    7.1506786e-07
      0.62721577       0.99999187    7.5777504e-07
      0.63736268       0.99999161    8.0296846e-07
      0.64767070       0.99999135    8.5076920e-07
      0.65814639       0.99999108    9.0133065e-07
      0.66878971       0.99999080    9.5479760e-07
      0.67960781       0.99999051    1.0113403e-06
      0.69060079       0.99999022    1.0711162e-06
      0.70176851       0.99998992    1.1342911e-06
      0.71312284       0.99998961    1.2010773e-06
      0.72465574       0.99998930    1.2716258e-06
      0.73637533       0.99998897    1.3461565e-06
      0.74828597       0.99998865    1.4248821e-06
      0.76038766       0.99998831    1.5080090e-06
      0.77268974       0.99998797    1.5957934e-06
      0.78518752       0.99998763    1.6884305e-06
      0.79788566       0.99998728    1.7861971e-06
      0.81078912       0.99998693    1.8893275e-06
      0.82390321       0.99998659    1.9981209e-06
      0.83722795       0.99998626    2.1128288e-06
      0.85077472       0.99998596    2.2338090e-06
      0.86382717       0.99998630    2.3549781e-06
      0.86383921       0.99998630    2.0492064e-06
      0.86453191       0.99998588    2.0549465e-06
      0.87851717       0.99998526    2.1794967e-06
      0.89272445       0.99998497    2.3115678e-06
      0.90277383       0.99998624    2.4084176e-06
      0.90278698       0.99998624    1.7267352e-06
      0.90716643       0.99998469    1.7581011e-06
      0.92183655       0.99998391    1.8662463e-06
      0.93674824       0.99998331    1.9810596e-06
      0.95189443       0.99998276    2.1029073e-06
      0.96729692       0.99998224    2.2323071e-06
      0.98294103       0.99998174    2.3696282e-06
      0.99884192       0.99998129    2.5154211e-06
       1.0149914       0.99998093    2.6701368e-06
       1.0314143       0.99998089    2.8344327e-06
       1.0402410       0.99998444    2.9240642e-06
       1.0402585       0.99998444    1.1731157e-06
       1.0480937       0.99998037    1.2050769e-06
       1.0650470       0.99997908    1.2763795e-06
       1.0822742       0.99997810    1.3520030e-06
       1.0997751       0.99997718    1.4321946e-06
       1.1175592       0.99997627    1.5172436e-06
       1.1356365       0.99997537    1.6074593e-06
       1.1540074       0.99997445    1.7031451e-06
       1.1726719       0.99997351    1.8046152e-06
       1.1916406       0.99997256    1.9122351e-06
       1.2109138       0.99997158    2.0263647e-06
       1.2305030       0.99997057    2.1474113e-06
       1.2504021       0.99996954    2.2757593e-06
       1.2706260       0.99996848    2.4119282e-06
       1.2911771       0.99996738    2.5563209e-06
       1.3120610       0.99996626    2.7094367e-06
       1.3332830       0.99996510    2.8717620e-06
       1.3548474       0.99996390    3.0438214e-06
       1.3767614       0.99996266    3.2262418e-06
       1.3990297       0.99996139    3.4196082e-06
       1.4216568       0.99996008    3.6246589e-06
       1.4446523       0.99995873    3.8421077e-06
       1.4680180       0.99995733    4.0726316e-06
       1.4917624       0.99995589    4.3170030e-06
       1.5158889       0.99995440    4.5759099e-06
       1.5404086       0.99995287    4.8502852e-06
       1.5653233       0.99995129    5.1410222e-06
       1.5906408       0.99994966    5.4491339e-06
       1.6163693       0.99994798    5.7756898e-06
       1.6425127       0.99994624    6.1217929e-06
       1.6690775       0.99994445    6.4882114e-06
       1.6960747       0.99994261    6.8763145e-06
       1.7235068       0.99994070    7.2875277e-06
       1.7513829       0.99993874    7.7232323e-06
       1.7797106       0.99993672    8.1844252e-06
       1.8084974       0.99993463    8.6727781e-06
       1.8377457       0.99993248    9.1896860e-06
       1.8674717       0.99993027    9.7371355e-06
       1.8976755       0.99992799    1.0316494e-05
       1.9283713       0.99992564    1.0929825e-05
       1.9595592       0.99992322    1.1578644e-05
       1.9912542       0.99992072    1.2265437e-05
       2.0234629       0.99991815    1.2996760e-05
       2.0561883       0.99991554    1.3773545e-05
       2.0894473       0.99991281    1.4517959e-05
       2.1232398       0.99991004    1.5430792e-05
       2.1575837       0.99990719    1.6279530e-05
       2.1924790       0.99990421    1.7210697e-05
       2.2279410       0.99990115    1.8202149e-05
       2.2639777       0.99989801    1.9259259e-05
       2.3005973       0.99989475    2.0378997e-05
       2.3378081       0.99989157    2.1653470e-05
       2.3756186       0.99988821    2.2667804e-05
       2.4140424       0.99988466    2.3990802e-05
       2.4530886       0.99988108    2.5316548e-05
       2.4927620       0.99987735    2.6686036e-05
       2.5330824       0.99987350    2.8194008e-05
       2.5740550       0.99986956    2.9775465e-05
       2.6156849       0.99986551    3.1475443e-05
       2.6579939       0.99986137    3.3276665e-05
       2.7009877       0.99985715    3.5185098e-05
       2.7446721       0.99985282    3.7184079e-05
       2.7890648       0.99984843    3.9315626e-05
       2.8341719       0.99984391    4.1492502e-05
       2.8800192       0.99983941    4.3884332e-05
       2.9266003       0.99983443    4.5972846e-05
       2.9739352       0.99982934    4.9010222e-05
       3.0220307       0.99982457    5.1775471e-05
       3.0709086       0.99981960    5.4775518e-05
       3.1205844       0.99981458    5.7861240e-05
       3.1710581       0.99980945    6.1123852e-05
       3.2223454       0.99980427    6.4586566e-05
       3.2744626       0.99979909    6.8237112e-05
       3.3274268       0.99979385    7.1951372e-05
       3.3812472       0.99978851    7.5913724e-05
       3.4359325       0.99978315    8.0129338e-05
       3.4915109       0.99977769    8.4688763e-05
       3.5479825       0.99977349    8.9911209e-05
       3.6053672       0.99976952    9.3328634e-05
       3.6636748       0.99976354    9.6959101e-05
       3.7229377       0.99975762    0.00010207294
       3.7831564       0.99975260    0.00010738672
       3.8443417       0.99974860    0.00011312170
       3.9065168       0.99974469    0.00011610456
       3.9697063       0.99973820    0.00011874604
       4.0339103       0.99973108    0.00012501168
       4.0991543       0.99972537    0.00013131454
       4.1654656       0.99972002    0.00013809993
       4.2328301       0.99971561    0.00014548116
       4.3012899       0.99971253    0.00015228973
       4.3708599       0.99970973    0.00015894003
       4.4415557       0.99971110    0.00016652629
       4.5133926       0.99971418    0.00016676416
       4.5864037       0.99970524    0.00015946981
       4.6605890       0.99969356    0.00016705122
       4.7359651       0.99968815    0.00017186149
       4.8125674       0.99968176    0.00017988993
       4.8903959       0.99967896    0.00018873526
       4.9695078       0.99967857    0.00019646488
       5.0498841       0.99967969    0.00020345308
       5.1315648       0.99968371    0.00021163640
       5.2145492       0.99969879    0.00021556703
       5.2989025       0.99972422    0.00021051997
       5.3846029       0.99972684    0.00016385811
       5.4716958       0.99971927    0.00016013710
       5.5602058       0.99970772    9.0929153e-05
       5.6501326       0.99964720    7.6319666e-05
       5.7415267       0.99961193    8.1054331e-05
       5.8343882       0.99958278    8.5848252e-05
       5.9287432       0.99955651    9.0981407e-05
       6.0246483       0.99953184    9.6285162e-05
       6.1220744       0.99950804    0.00010171080
       6.2211108       0.99948449    0.00010709487
       6.3217276       0.99946059    0.00011296042
       6.4239878       0.99943688    0.00011980902
       6.5278919       0.99941387    0.00012646568
       6.6334728       0.99939017    0.00013240558
       6.7407656       0.99936513    0.00013938690
       6.8497693       0.99934030    0.00014731801
       6.9605584       0.99931508    0.00015410094
       7.0731335       0.99928802    0.00016183722
       7.1875344       0.99926075    0.00017108304
       7.3038032       0.99923299    0.00018007389
       7.4219400       0.99920391    0.00019038345
       7.5419881       0.99917484    0.00020191522
       7.6639458       0.99914564    0.00021296024
       7.7879065       0.99911512    0.00022449815
       7.9138715       0.99908291    0.00023680261
       8.0418913       0.99904971    0.00025155114
       8.1719659       0.99901728    0.00026788614
       8.3041479       0.99898588    0.00028519827
       8.4384358       0.99895444    0.00029963473
       8.5749435       0.99892050    0.00031475966
       8.7136125       0.99888469    0.00033079830
       8.8545632       0.99884766    0.00034887624
       8.9977974       0.99881034    0.00036794478
       9.1433138       0.99877224    0.00038804916
       9.2911768       0.99873358    0.00040925574
       9.4414555       0.99869448    0.00043135701
       9.5941507       0.99865443    0.00045316117
       9.7493355       0.99861260    0.00047607161
       9.9070893       0.99856927    0.00050014592
       10.067334       0.99852413    0.00052543091
       10.230146       0.99847723    0.00055370445
       10.395607       0.99843019    0.00058402076
       10.563718       0.99838265    0.00061599430
       10.734567       0.99833444    0.00064972117
       10.908249       0.99828559    0.00068530081
       11.084670       0.99823621    0.00072280050
       11.263923       0.99818640    0.00076235028
       11.446109       0.99813638    0.00080406948
       11.631229       0.99808651    0.00084806981
       11.819393       0.99803765    0.00089448443
       12.010603       0.99799115    0.00094099210
       12.204856       0.99794370    0.00098514301
       12.402208       0.99789311     0.0010313652
       12.602805       0.99784168     0.0010797611
       12.806650       0.99779017     0.0011304301
       13.013782       0.99773884     0.0011824597
       13.224267       0.99768652     0.0012348700
       13.438163       0.99763297     0.0012896046
       13.655510       0.99757900     0.0013467624
       13.876385       0.99752523     0.0014064575
       14.100833       0.99747420     0.0014687982
       14.328900       0.99742415     0.0015262127
       14.560653       0.99736888     0.0015855674
       14.796157       0.99731238     0.0016472290
       15.035483       0.99725484     0.0017112949
       15.278668       0.99719678     0.0017778526
       15.525784       0.99713971     0.0018469947
       15.776908       0.99708247     0.0019138992
       16.032080       0.99702149     0.0019832065
       16.291381       0.99695910     0.0020550273
       16.554896       0.99689542     0.0021294503
       16.822646       0.99683058     0.0022065648
       17.094744       0.99676452     0.0022865107
       17.371237       0.99669772     0.0023703374
       17.652220       0.99663115     0.0024572463
       17.937718       0.99656470     0.0025473283
       18.227858       0.99649880     0.0026407323
       18.522667       0.99643407     0.0027375395
       18.822253       0.99637439     0.0028379111
       19.126701       0.99631967     0.0029341999
       19.436071       0.99625942     0.0030245641
       19.750420       0.99619446     0.0031177044
       20.069873       0.99612694     0.0032137197
       20.394494       0.99605753     0.0033126933
       20.724350       0.99598660     0.0034147102
       21.059540       0.99591448     0.0035198697
       21.400172       0.99584150     0.0036282635
       21.746320       0.99576825     0.0037400107
       22.098019       0.99569503     0.0038528817
       22.455464       0.99561948     0.0039686231
       22.818655       0.99554274     0.0040878309
       23.187715       0.99546515     0.0042106197
       23.562773       0.99538698     0.0043371098
       23.943873       0.99530864     0.0044673779
       24.331152       0.99523074     0.0046010494
       24.724703       0.99515253     0.0047371210
       25.124575       0.99507345     0.0048771902
       25.530967       0.99499444     0.0050214130
       25.943881       0.99491594     0.0051699058
       26.363529       0.99483847     0.0053227848
       26.789912       0.99476292     0.0054801723
       27.223259       0.99469108     0.0056422512
       27.663570       0.99462519     0.0058028715
       28.111028       0.99455714     0.0059614261
       28.565693       0.99448681     0.0061243327
       29.027695       0.99441739     0.0062916731
       29.497164       0.99435003     0.0064635744
       29.974313       0.99428623     0.0066402255
       30.459069       0.99423261     0.0068216216
       30.951724       0.99419110     0.0069971817
       31.452358       0.99414411     0.0071548525
       31.961129       0.99408869     0.0073160875
       32.478035       0.99403089     0.0074809121
       33.003325       0.99397280     0.0076494389
       33.537174       0.99391617     0.0078218064
       34.079583       0.99386305     0.0079980450
       34.630828       0.99381927     0.0081782525
       35.190907       0.99379123     0.0083625214
       35.760114       0.99377092     0.0084989640
       36.338557       0.99372682     0.0086364750
       36.926230       0.99367404     0.0087761311
       37.523455       0.99361612     0.0089180475
       38.130463       0.99355534     0.0090623340
       38.747137       0.99349357     0.0092088989
       39.373829       0.99343658     0.0093578310
       40.010665       0.99338746     0.0095021503
       40.657906       0.99333231     0.0096235174
       41.315413       0.99326417     0.0097463507
       41.983729       0.99319034     0.0098708275
       42.662715       0.99311366     0.0099967998
       43.352804       0.99303679      0.010124482
       44.053998       0.99296276      0.010253741
       44.766606       0.99290928      0.010384678
       45.490627       0.99288154      0.010478609
       46.226385       0.99281593      0.010528241
       46.974051       0.99272463      0.010578096
       47.733800       0.99262010      0.010628210
       48.505812       0.99250933      0.010678560
       49.290465       0.99240577      0.010724177
       50.087563       0.99229194      0.010720636
       50.897699       0.99214062      0.010717122
       51.721092       0.99197264      0.010713734
       52.557524       0.99180258      0.010710169
       53.407647       0.99163694      0.010685377
       54.271466       0.99143585      0.010615178
       55.149211       0.99119711      0.010545374
       56.041372       0.99093570      0.010476202
       56.947698       0.99066145      0.010407351
       57.868691       0.99040334      0.010338931
       58.804899       0.99013328      0.010148111
       59.755765       0.98975798     0.0099541093
       60.722419       0.98932998     0.0097638983
       61.704582       0.98886402     0.0095773268
       62.702545       0.98836062     0.0093691983
       63.716615       0.98778925     0.0091583271
       64.747453       0.98716464     0.0089523046
       65.794382       0.98648924     0.0087507715
       66.858775       0.98576060     0.0085538826
       67.939926       0.98497724     0.0083633861
       69.038928       0.98413896     0.0081801856
       70.155805       0.98324185     0.0080010101
       71.290142       0.98227783     0.0078256368
       72.443557       0.98120818     0.0076542533
       73.615234       0.98001433     0.0075897012
       74.805571       0.97886682     0.0075871654
       76.015922       0.97768640     0.0075847853
       77.245385       0.97644305     0.0075823020
       78.494394       0.97510551     0.0075797516
       79.763927       0.97367608     0.0077263747
       81.054529       0.97227264     0.0079023963
       82.365143       0.97083627     0.0080822278
       83.697362       0.96934228     0.0082662652
       85.051209       0.96774176     0.0084544931
       86.426674       0.96599884     0.0087420312
       87.824958       0.96427476     0.0091458343
       89.245456       0.96252221     0.0095682161
       90.688774       0.96069783      0.010010063
       92.155562       0.95875034      0.010472335
       93.645815       0.95662775      0.011185853
       95.160950       0.95462596      0.012050314
       96.700269       0.95270056      0.012981475
       98.263721       0.95084362      0.013825805
       99.853623       0.94883782      0.014664431
       101.46841       0.94675489      0.015553628
       103.10969       0.94459743      0.016496888
       104.77749       0.94235854      0.017497361
       106.47177       0.94002109      0.018576782
       108.19436       0.93761562      0.019766675
       109.94436       0.93514610      0.021032660
       111.72269       0.93259239      0.022379713
       113.52933       0.92990443      0.023812827
       115.36531       0.92703163      0.025426698
       117.23170       0.92416556      0.027366776
       119.12742       0.92134054      0.029454388
       121.05473       0.91855196      0.031701727
       123.01245       0.91583614      0.034053098
       125.00202       0.91304198      0.036407819
       127.02380       0.91014092      0.038925401
       129.07833       0.90707290      0.041617120
       131.16612       0.90375445      0.044774062
       133.28759       0.90080417      0.048536994
       135.44344       0.89826908      0.052601917
       137.63411       0.89603197      0.056552642
       139.86020       0.89399966      0.060800419
       142.12233       0.89255523      0.065366782
       144.42114       0.89190375      0.069542654
       146.75697       0.89245901      0.073892107
       149.13066       0.89243129      0.073105300
       151.54275       0.88827863      0.075056783
       153.99379       0.88538045      0.078585375
       156.48452       0.88289001      0.082280547
       159.01553       0.88071135      0.086148561
       161.58742       0.87901043      0.089580953
       164.20102       0.87674747      0.092745782
       166.85698       0.87409672      0.096022600
       169.55575       0.87103203      0.099746340
       172.29822       0.86805616       0.10380041
       175.08487       0.86488560       0.10801991
       177.91666       0.86112105       0.11278496
       180.79436       0.85773156       0.11903611
       183.71875       0.85512048       0.12563425
       186.69009       0.85314645       0.13259751
       189.70977       0.85203521       0.13994747
       192.77807       0.85179063       0.14686173
       195.89617       0.85249326       0.15401537
       199.06468       0.85536218       0.15952597
       202.28423       0.85646401       0.16325920
       205.55611       0.85689910       0.16707901
       208.88101       0.85747232       0.17098953
       212.25927       0.85858655       0.17373796
       215.69230       0.85823161       0.17578654
       219.18124       0.85704648       0.17785968
       222.72606       0.85518130       0.17995641
       226.32876       0.85247468       0.18207897
       229.98932       0.84846688       0.18522537
       233.70942       0.84499070       0.18923895
       237.48951       0.84146563       0.19333795
       241.33046       0.83765373       0.19752726
       245.23365       0.83302249       0.20180670
       249.20055       0.82674605       0.20765141
       253.23115       0.82198293       0.21528408
       257.32697       0.81802999       0.22319904
       261.48905       0.81458446       0.23140312
       265.71850       0.81167622       0.23970113
       270.01583       0.80896856       0.24815234
       274.38339       0.80665047       0.25690317
       278.82118       0.80518763       0.26596006
       283.33105       0.80466151       0.27362967
       287.91364       0.80309014       0.28086191
       292.57025       0.80106819       0.28828826
       297.30224       0.79882355       0.29590978
       302.11103       0.79637556       0.30373201
       306.99733       0.79363169       0.31176418
       311.96343       0.79037069       0.32036740
       317.00852       0.78739751       0.32963928
       322.13575       0.78451441       0.33917910
       327.34683       0.78154153       0.34899824
       332.64091       0.77824077       0.35909719
       338.02148       0.77390539       0.37047523
       343.48854       0.77076607       0.38380302
       349.04395       0.76862906       0.39761236
       354.68965       0.76728161       0.41191855
       360.42667       0.76669903       0.42671776
       366.25600       0.76687480       0.44202524
       372.17978       0.76783860       0.45788500
       378.20024       0.76935573       0.47431129
       384.31739       0.77010618       0.49410188
       390.53233       0.77941370       0.52049313
       396.84992       0.80264414       0.53668916
       403.26770       0.81876075       0.54355668
       409.79078       0.83501193       0.55052357
       416.41925       0.85660173       0.54870811
       423.15444       0.86805688       0.53994582
       427.517 0.905      0.599000
       442.786 0.901      0.607000
       459.185 0.895      0.635000
       469.977 0.855      0.548000
       476.846 0.896      0.679000
       479.985 0.846      0.565000
       490.040 0.846      0.600000
       499.919 0.850      0.645000
       509.996 0.860      0.695000
       520.050 0.872      0.740000
       530.056 0.890      0.795000
       539.983 0.915      0.825000
       550.044 0.950      0.840000
       559.982 0.985      0.848000
       570.023 1.022      0.850000
       579.888 1.055      0.842000
       590.100 1.085      0.830000
       600.097 1.113      0.813000
       609.838 1.134      0.795000
       619.900 1.146      0.770000
       629.980 1.153      0.750000
       640.062 1.157      0.730000
       650.131 1.155      0.710000
       659.819 1.140      0.700000
       669.800 1.125      0.694000
       680.088 1.107      0.687000
       689.928 1.088      0.680000
       700.057 1.075      0.678000
       710.080 1.060      0.680000
       719.977 1.050      0.685000
       730.153 1.042      0.690000
       740.179 1.038      0.697000
       750.030 1.033      0.704000
       760.147 1.030      0.713000
       770.062 1.029      0.720000
       779.748 1.028      0.730000
       790.185 1.028      0.739000
       799.871 1.029      0.745000
       809.797 1.030      0.752000
       819.974 1.033      0.759000
       829.853 1.037      0.765000
       839.973 1.041      0.770000
       849.760 1.048      0.775000
       859.778 1.053      0.780000
       870.035 1.061      0.784000
       879.915 1.070      0.789000
       890.022 1.080      0.793000
       899.710 1.090      0.798000
       910.279 1.100      0.801000
       919.733 1.110      0.806000
       930.083 1.121      0.809000
       939.955 1.133      0.812000
       950.038 1.146      0.815000
       959.598 1.159      0.819000
       970.110 1.170      0.823000
       980.079 1.180      0.826000
       990.256 1.190      0.831000
       999.839 1.200      0.836000
       1009.61 1.207      0.842000
       1019.57 1.210      0.848000
       1029.73 1.213      0.853000
       1040.10 1.215      0.860000
       1049.79 1.217      0.865000
       1059.66 1.217      0.870000
       1069.72 1.218      0.878000
       1079.97 1.218      0.885000
       1090.41 1.220      0.893000
       1100.09 1.222      0.900000
       1109.94 1.223      0.907000
       1119.96 1.225      0.914000
       1130.17 1.228      0.922000
       1139.52 1.232      0.927000
       1150.09 1.237      0.932000
       1159.78 1.242      0.935000
       1169.62 1.247      0.942000
       1179.64 1.250      0.950000
       1189.83 1.255      0.955000
       1200.19 1.260      0.962000
       1209.56 1.265      0.967000
       1220.28 1.270      0.975000
       1229.96 1.275      0.982000
       1239.80 1.280      0.987000
       1249.92 1.285      0.994000
       1259.96 1.290       1.00000
       1269.90 1.295       1.00500
       1279.99 1.300       1.01200
       1289.98 1.304       1.01700
       1299.99 1.308       1.02000
       1309.88 1.313       1.02700
       1319.92 1.318       1.03200
       1329.97 1.323       1.03800
       1339.89 1.328       1.04500
       1349.96 1.333       1.05000
       1359.88 1.338       1.05300
       1369.94 1.345       1.05800
       1380.01 1.350       1.06300
       1389.91 1.355       1.06700
       1399.95 1.360       1.07200
       1449.89 1.386       1.08900
       1499.88 1.419       1.10200
       1549.94 1.450       1.10800
       1599.95 1.483       1.10600
       1649.99 1.512       1.09300
       1699.99 1.519       1.07000
       1749.89 1.500       1.07000
       1799.94 1.470       1.08500
       1849.90 1.442       1.10700
       1899.79 1.427       1.13500
       1949.98 1.424       1.17000
       2000.00 1.427       1.21500
       2066.33 1.422       1.30600
       2101.36 1.430       1.33400
       2137.59 1.432       1.36400
       2175.09 1.438       1.38800
       2213.93 1.442       1.41800
       2254.18 1.452       1.44200
       2295.93 1.454       1.47800
       2339.25 1.462       1.51000
       2384.23 1.470       1.55000
       2430.98 1.478       1.59000
       2479.60 1.484       1.63600
       2530.20 1.490       1.69800
       2582.92 1.504       1.74800
       2637.87 1.546       1.78400
       2695.22 1.598       1.82200
       2755.11 1.648       1.85200
       2817.73 1.690       1.88200
       2883.26 1.742       1.90000
       2951.90 1.776       1.91800
       3023.90 1.812       1.92000
       3099.50 1.830       1.91600
       3178.97 1.840       1.90400
       3262.63 1.824       1.87800
       3350.81 1.798       1.86000
       3443.89 1.766       1.84600
       3542.29 1.740       1.84800
       3646.47 1.716       1.86200
       3756.97 1.696       1.90600
       3874.38 1.674       1.93600
       3999.35 1.658       1.95600
       4132.67 1.636       1.95800
       4275.17 1.616       1.94000
       4427.86 1.562       1.90400
       4591.85 1.426       1.84600
       4768.46 1.242       1.79600
       4959.20 0.916       1.84000
       5165.83 0.608       2.12000
       5390.44 0.402       2.54000
       5635.45 0.306       2.88000
       6525.26 0.166       3.15000
       6887.78 0.160       3.80000
       7292.94 0.164       4.35000
       7748.75 0.174       4.86000
       8265.33 0.188       5.39000
       8855.71 0.210       5.88000
       9536.92 0.236       6.47000
       10331.7 0.272       7.07000
       11270.9 0.312       7.93000
       12398.0 0.372       8.77000
       12651.0 0.389       8.09000
       12914.6 0.403       8.25000
       13189.4 0.419       8.42000
       13476.1 0.436       8.59000
       13775.6 0.454       8.77000
       13775.6 0.458       9.72000
       14088.6 0.473       8.96000
       14416.3 0.493       9.15000
       14759.5 0.515       9.36000
       15119.5 0.537       9.58000
       15497.5 0.559       9.81000
       15497.5 0.550       11.5000
       15894.9 0.583       10.1000
       16313.2 0.609       10.3000
       16754.1 0.636       10.6000
       17219.4 0.665       10.9000
       17711.4 0.696       11.2000
       17711.4 0.726       12.9000
       18232.4 0.730       11.5000
       18784.8 0.767       11.9000
       19371.9 0.807       12.2000
       19996.8 0.850       12.6000
       20663.3 0.896       13.0000
       20663.3 0.976       15.1000
       21375.9 0.947       13.4000
       22139.3 1.002       13.9000
       22959.3 1.063       14.4000
       23842.3 1.130       14.9000
       24796.0 1.205       15.5000
       25829.2 1.287       16.1000
       26952.2 1.379       16.8000
       28177.3 1.482       17.5000
       29519.0 1.598       18.3000
       30995.0 1.728       19.2000
       31789.7 1.800       19.7000
       32626.3 1.876       20.2000
       33508.1 1.958       20.7000
       34438.9 2.046       21.3000
       35422.9 2.141       21.9000
       36464.7 2.242       22.5000
       37569.7 2.352       23.1000
       38743.8 2.471       23.9000
       39993.5 2.600       24.6000
       41326.7 2.749       25.4000
       42751.7 2.912       26.3000
       44278.6 3.091       27.2000
       45918.5 3.289       28.2000
       47684.6 3.507       29.3000
       49592.0 3.748       30.5000
       51658.3 4.007       31.7000
       53904.3 4.292       32.9000
       56354.5 4.611       34.3000
       59038.1 4.971       35.9000
       61990.0 5.423       37.5000
       63579.5 5.684       38.3000
       65252.6 5.966       39.1000
       67016.2 6.270       40.1000
       68877.8 6.598       41.0000
       70845.7 6.937       42.0000
       72929.4 7.282       43.0000
       75139.4 7.655       44.1000
       77487.5 8.060       45.2000
       79987.1 8.500       46.4000
       82653.3 9.016       47.6000
       85503.5 9.582       48.8000
       88557.1 10.21       50.2000
       91837.0 10.84       51.6000
       95369.2 11.51       53.1000
       99184.0 12.24       54.7000
