;Updated optical constants for B4C, density =2.28 g/cm3
;R. Soufli et al "Optical constants of magnetron sputtered 
;boron carbide thin films from photoabsorption data in the range 30 to 770 eV" 
;Applied Optics 47, 4633-39 (2008).
;Combined with Blumenstock et al data (6-30 eV) and CXRO data (> 770 eV)
;
;
;Lambda (A)	n	k
;---------------------------------------------
0.413267	1	1.50E-10
0.416307	0.999999	1.51E-10
0.41937	0.999999	1.53E-10
0.422454	0.999999	1.55E-10
0.425563	0.999999	1.57E-10
0.428692	0.999999	1.59E-10
0.431846	0.999999	1.61E-10
0.435024	0.999999	1.63E-10
0.438223	0.999999	1.65E-10
0.441447	0.999999	1.67E-10
0.444695	0.999999	1.69E-10
0.447966	0.999999	1.72E-10
0.451261	0.999999	1.74E-10
0.45458	0.999999	1.76E-10
0.457925	0.999999	1.79E-10
0.461293	0.999999	1.81E-10
0.464687	0.999999	1.84E-10
0.468105	0.999999	1.86E-10
0.471548	0.999999	1.89E-10
0.475017	0.999999	1.92E-10
0.478512	0.999999	1.94E-10
0.482032	0.999999	1.97E-10
0.485577	0.999999	2.00E-10
0.48915	0.999999	2.03E-10
0.492749	0.999999	2.06E-10
0.496373	0.999999	2.09E-10
0.500024	0.999999	2.12E-10
0.503703	0.999999	2.15E-10
0.507408	0.999999	2.19E-10
0.511142	0.999999	2.22E-10
0.514901	0.999999	2.26E-10
0.518688	0.999999	2.29E-10
0.522505	0.999999	2.33E-10
0.526349	0.999999	2.37E-10
0.530221	0.999999	2.40E-10
0.53412	0.999999	2.44E-10
0.538049	0.999999	2.48E-10
0.542008	0.999999	2.53E-10
0.545997	0.999999	2.57E-10
0.550013	0.999999	2.61E-10
0.554058	0.999999	2.66E-10
0.558134	0.999999	2.70E-10
0.56224	0.999999	2.75E-10
0.566375	0.999999	2.80E-10
0.570542	0.999999	2.85E-10
0.57474	0.999999	2.90E-10
0.578967	0.999999	2.96E-10
0.583227	0.999999	3.01E-10
0.587516	0.999999	3.07E-10
0.591838	0.999999	3.12E-10
0.596192	0.999999	3.18E-10
0.600579	0.999999	3.24E-10
0.604996	0.999999	3.30E-10
0.609448	0.999999	3.37E-10
0.61393	0.999999	3.43E-10
0.618447	0.999999	3.50E-10
0.622996	0.999999	3.57E-10
0.627578	0.999999	3.64E-10
0.632196	0.999999	3.71E-10
0.636846	0.999999	3.78E-10
0.641532	0.999999	3.86E-10
0.646251	0.999999	3.94E-10
0.651005	0.999999	4.02E-10
0.655795	0.999999	4.10E-10
0.660617	0.999999	4.18E-10
0.665479	0.999999	4.27E-10
0.670372	0.999999	4.36E-10
0.675305	0.999999	4.45E-10
0.680274	0.999999	4.55E-10
0.685275	0.999999	4.65E-10
0.690319	0.999999	4.75E-10
0.695396	0.999999	4.85E-10
0.700511	0.999999	4.96E-10
0.705667	0.999999	5.07E-10
0.710858	0.999999	5.18E-10
0.716084	0.999999	5.30E-10
0.721355	0.999998	5.42E-10
0.726661	0.999998	5.54E-10
0.732007	0.999998	5.67E-10
0.737388	0.999998	5.80E-10
0.742813	0.999998	5.94E-10
0.748278	0.999998	6.08E-10
0.753783	0.999998	6.22E-10
0.759328	0.999998	6.37E-10
0.764917	0.999998	6.52E-10
0.770541	0.999998	6.68E-10
0.776209	0.999998	6.84E-10
0.781922	0.999998	7.01E-10
0.78767	0.999998	7.18E-10
0.793467	0.999998	7.35E-10
0.799304	0.999998	7.54E-10
0.805185	0.999998	7.72E-10
0.811106	0.999998	7.92E-10
0.817072	0.999998	8.11E-10
0.823082	0.999998	8.32E-10
0.829137	0.999998	8.53E-10
0.835236	0.999998	8.75E-10
0.841381	0.999998	8.97E-10
0.84757	0.999998	9.20E-10
0.85381	0.999998	9.44E-10
0.860088	0.999998	9.68E-10
0.866417	0.999998	9.93E-10
0.872791	0.999998	1.02E-09
0.87921	0.999998	1.05E-09
0.885679	0.999998	1.07E-09
0.892193	0.999998	1.10E-09
0.898758	0.999998	1.13E-09
0.905367	0.999998	1.16E-09
0.912027	0.999998	1.19E-09
0.918738	0.999997	1.22E-09
0.925493	0.999997	1.26E-09
0.932307	0.999997	1.29E-09
0.939164	0.999997	1.33E-09
0.946073	0.999997	1.36E-09
0.953032	0.999997	1.40E-09
0.960043	0.999997	1.44E-09
0.967105	0.999997	1.48E-09
0.974218	0.999997	1.52E-09
0.981382	0.999997	1.56E-09
0.988605	0.999997	1.60E-09
0.995879	0.999997	1.65E-09
1.0032	0.999997	1.69E-09
1.01058	0.999997	1.74E-09
1.01802	0.999997	1.79E-09
1.02551	0.999997	1.84E-09
1.03305	0.999997	1.89E-09
1.04065	0.999997	1.95E-09
1.04831	0.999997	2.00E-09
1.05601	0.999997	2.06E-09
1.06379	0.999997	2.12E-09
1.07161	0.999997	2.18E-09
1.07949	0.999997	2.24E-09
1.08744	0.999997	2.31E-09
1.09543	0.999996	2.37E-09
1.1035	0.999996	2.44E-09
1.11161	0.999996	2.51E-09
1.11979	0.999996	2.58E-09
1.12802	0.999996	2.66E-09
1.13633	0.999996	2.74E-09
1.14468	0.999996	2.82E-09
1.1531	0.999996	2.90E-09
1.16159	0.999996	2.98E-09
1.17013	0.999996	3.07E-09
1.17874	0.999996	3.16E-09
1.18741	0.999996	3.25E-09
1.19614	0.999996	3.35E-09
1.20494	0.999996	3.45E-09
1.21381	0.999996	3.55E-09
1.22274	0.999996	3.66E-09
1.23173	0.999996	3.76E-09
1.24079	0.999995	3.88E-09
1.24992	0.999995	3.99E-09
1.25912	0.999995	4.11E-09
1.26838	0.999995	4.23E-09
1.27771	0.999995	4.36E-09
1.28711	0.999995	4.49E-09
1.29658	0.999995	4.62E-09
1.30611	0.999995	4.76E-09
1.31572	0.999995	4.90E-09
1.3254	0.999995	5.05E-09
1.33515	0.999995	5.20E-09
1.34497	0.999995	5.35E-09
1.35487	0.999995	5.51E-09
1.36484	0.999995	5.68E-09
1.37487	0.999994	5.85E-09
1.38499	0.999994	6.03E-09
1.39518	0.999994	6.21E-09
1.40544	0.999994	6.40E-09
1.41578	0.999994	6.59E-09
1.4262	0.999994	6.79E-09
1.43669	0.999994	6.99E-09
1.44726	0.999994	7.20E-09
1.4579	0.999994	7.42E-09
1.46863	0.999994	7.65E-09
1.47943	0.999994	7.88E-09
1.49031	0.999994	8.12E-09
1.50128	0.999993	8.36E-09
1.51232	0.999993	8.61E-09
1.52345	0.999993	8.88E-09
1.53465	0.999993	9.14E-09
1.54594	0.999993	9.42E-09
1.55731	0.999993	9.71E-09
1.56877	0.999993	1.00E-08
1.58031	0.999993	1.03E-08
1.59194	0.999993	1.06E-08
1.60365	0.999992	1.09E-08
1.61544	0.999992	1.13E-08
1.62733	0.999992	1.16E-08
1.6393	0.999992	1.20E-08
1.65136	0.999992	1.23E-08
1.66351	0.999992	1.27E-08
1.67574	0.999992	1.31E-08
1.68807	0.999992	1.35E-08
1.70049	0.999991	1.39E-08
1.713	0.999991	1.43E-08
1.7256	0.999991	1.48E-08
1.73829	0.999991	1.52E-08
1.75108	0.999991	1.57E-08
1.76396	0.999991	1.62E-08
1.77694	0.999991	1.67E-08
1.79001	0.999991	1.72E-08
1.80318	0.99999	1.77E-08
1.81644	0.99999	1.82E-08
1.82981	0.99999	1.88E-08
1.84327	0.99999	1.94E-08
1.85683	0.99999	2.00E-08
1.87049	0.99999	2.06E-08
1.88425	0.99999	2.12E-08
1.89811	0.999989	2.18E-08
1.91207	0.999989	2.25E-08
1.92614	0.999989	2.32E-08
1.9403	0.999989	2.39E-08
1.95458	0.999989	2.46E-08
1.96896	0.999989	2.54E-08
1.98344	0.999988	2.62E-08
1.99803	0.999988	2.70E-08
2.01273	0.999988	2.78E-08
2.02754	0.999988	2.86E-08
2.04245	0.999988	2.95E-08
2.05748	0.999988	3.04E-08
2.07261	0.999987	3.13E-08
2.08786	0.999987	3.23E-08
2.10322	0.999987	3.33E-08
2.11869	0.999987	3.43E-08
2.13428	0.999987	3.54E-08
2.14998	0.999986	3.64E-08
2.16579	0.999986	3.76E-08
2.18172	0.999986	3.87E-08
2.19777	0.999986	3.99E-08
2.21394	0.999986	4.11E-08
2.23023	0.999985	4.24E-08
2.24664	0.999985	4.37E-08
2.26316	0.999985	4.50E-08
2.27981	0.999985	4.64E-08
2.29658	0.999984	4.78E-08
2.31348	0.999984	4.92E-08
2.33049	0.999984	5.07E-08
2.34764	0.999984	5.23E-08
2.36491	0.999984	5.39E-08
2.38231	0.999983	5.55E-08
2.39983	0.999983	5.72E-08
2.41748	0.999983	5.90E-08
2.43527	0.999983	6.08E-08
2.45318	0.999982	6.26E-08
2.47123	0.999982	6.45E-08
2.48941	0.999982	6.65E-08
2.50772	0.999981	6.85E-08
2.52617	0.999981	7.06E-08
2.54476	0.999981	7.28E-08
2.56347	0.999981	7.50E-08
2.58233	0.99998	7.73E-08
2.60133	0.99998	7.96E-08
2.62047	0.99998	8.21E-08
2.63974	0.999979	8.46E-08
2.65916	0.999979	8.71E-08
2.67872	0.999979	8.98E-08
2.69843	0.999979	9.25E-08
2.71828	0.999978	9.54E-08
2.73827	0.999978	9.83E-08
2.75842	0.999978	1.01E-07
2.77871	0.999977	1.04E-07
2.79915	0.999977	1.08E-07
2.81975	0.999977	1.11E-07
2.84048	0.999976	1.14E-07
2.86138	0.999976	1.18E-07
2.88243	0.999976	1.21E-07
2.90364	0.999975	1.25E-07
2.92499	0.999975	1.29E-07
2.94651	0.999974	1.33E-07
2.96819	0.999974	1.37E-07
2.99002	0.999974	1.41E-07
3.01202	0.999973	1.45E-07
3.03417	0.999973	1.49E-07
3.0565	0.999972	1.54E-07
3.07898	0.999972	1.59E-07
3.10163	0.999972	1.64E-07
3.12445	0.999971	1.68E-07
3.14744	0.999971	1.74E-07
3.17058	0.99997	1.79E-07
3.19391	0.99997	1.84E-07
3.21741	0.999969	1.90E-07
3.24108	0.999969	1.96E-07
3.26492	0.999968	2.02E-07
3.28893	0.999968	2.08E-07
3.31313	0.999968	2.14E-07
3.33751	0.999967	2.20E-07
3.36205	0.999967	2.27E-07
3.38678	0.999966	2.34E-07
3.4117	0.999966	2.41E-07
3.4368	0.999965	2.48E-07
3.46208	0.999965	2.56E-07
3.48755	0.999964	2.63E-07
3.51321	0.999963	2.71E-07
3.53905	0.999963	2.80E-07
3.56508	0.999962	2.88E-07
3.59131	0.999962	2.97E-07
3.61773	0.999961	3.06E-07
3.64434	0.999961	3.15E-07
3.67115	0.99996	3.24E-07
3.69816	0.999959	3.34E-07
3.72536	0.999959	3.44E-07
3.75276	0.999958	3.54E-07
3.78037	0.999958	3.65E-07
3.80818	0.999957	3.76E-07
3.83619	0.999956	3.87E-07
3.86441	0.999956	3.99E-07
3.89284	0.999955	4.11E-07
3.92148	0.999954	4.23E-07
3.95033	0.999954	4.36E-07
3.97939	0.999953	4.49E-07
4.00867	0.999952	4.62E-07
4.03815	0.999952	4.76E-07
4.06787	0.999951	4.91E-07
4.09778	0.99995	5.05E-07
4.12793	0.999949	5.20E-07
4.1583	0.999949	5.36E-07
4.18888	0.999948	5.52E-07
4.21971	0.999947	5.68E-07
4.25074	0.999946	5.85E-07
4.28201	0.999946	6.03E-07
4.31352	0.999945	6.21E-07
4.34524	0.999944	6.39E-07
4.37721	0.999943	6.58E-07
4.4094	0.999942	6.78E-07
4.44185	0.999941	6.98E-07
4.47452	0.999941	7.19E-07
4.50743	0.99994	7.40E-07
4.54059	0.999939	7.63E-07
4.574	0.999938	7.85E-07
4.60765	0.999937	8.09E-07
4.64153	0.999936	8.33E-07
4.67568	0.999935	8.57E-07
4.71007	0.999934	8.83E-07
4.74474	0.999933	9.09E-07
4.77964	0.999932	9.36E-07
4.81479	0.999931	9.64E-07
4.85021	0.99993	9.93E-07
4.88589	0.999929	1.02E-06
4.92183	0.999928	1.05E-06
4.95805	0.999927	1.08E-06
4.99452	0.999926	1.12E-06
5.03127	0.999925	1.15E-06
5.06827	0.999923	1.18E-06
5.10555	0.999922	1.22E-06
5.14312	0.999921	1.25E-06
5.18094	0.99992	1.29E-06
5.21907	0.999919	1.33E-06
5.25744	0.999918	1.37E-06
5.29612	0.999916	1.41E-06
5.33509	0.999915	1.45E-06
5.37434	0.999914	1.49E-06
5.41388	0.999913	1.54E-06
5.4537	0.999911	1.58E-06
5.49381	0.99991	1.63E-06
5.53423	0.999909	1.68E-06
5.57494	0.999907	1.73E-06
5.61595	0.999906	1.78E-06
5.65726	0.999904	1.83E-06
5.69889	0.999903	1.89E-06
5.7408	0.999901	1.94E-06
5.78303	0.9999	2.00E-06
5.82558	0.999898	2.06E-06
5.86843	0.999897	2.12E-06
5.91161	0.999895	2.18E-06
5.95508	0.999894	2.24E-06
5.99891	0.999892	2.31E-06
6.04303	0.999891	2.38E-06
6.08748	0.999889	2.45E-06
6.13228	0.999887	2.52E-06
6.17738	0.999886	2.59E-06
6.22283	0.999884	2.67E-06
6.26861	0.999882	2.75E-06
6.31472	0.99988	2.83E-06
6.36118	0.999879	2.91E-06
6.40796	0.999877	2.99E-06
6.45511	0.999875	3.08E-06
6.50257	0.999873	3.17E-06
6.55043	0.999871	3.27E-06
6.59861	0.999869	3.36E-06
6.64715	0.999867	3.46E-06
6.69605	0.999865	3.56E-06
6.7453	0.999863	3.67E-06
6.79491	0.999861	3.77E-06
6.84492	0.999859	3.88E-06
6.89529	0.999857	4.00E-06
6.94601	0.999855	4.11E-06
6.99709	0.999853	4.23E-06
7.04856	0.999851	4.36E-06
7.1004	0.999848	4.49E-06
7.15267	0.999846	4.62E-06
7.20525	0.999844	4.75E-06
7.25827	0.999841	4.89E-06
7.31165	0.999839	5.03E-06
7.36547	0.999837	5.18E-06
7.41964	0.999834	5.33E-06
7.47421	0.999832	5.48E-06
7.52918	0.999829	5.64E-06
7.58459	0.999827	5.81E-06
7.6404	0.999824	5.98E-06
7.69661	0.999821	6.15E-06
7.75321	0.999819	6.33E-06
7.81026	0.999816	6.51E-06
7.8677	0.999813	6.70E-06
7.92559	0.99981	6.90E-06
7.98388	0.999807	7.10E-06
8.04261	0.999805	7.30E-06
8.10178	0.999802	7.52E-06
8.16136	0.999799	7.74E-06
8.22143	0.999796	7.96E-06
8.2819	0.999793	8.19E-06
8.34281	0.999789	8.43E-06
8.40417	0.999786	8.67E-06
8.46603	0.999783	8.92E-06
8.52829	0.99978	9.18E-06
8.59105	0.999776	9.44E-06
8.6542	0.999773	9.72E-06
8.71791	0.99977	1.00E-05
8.78201	0.999766	1.03E-05
8.84661	0.999763	1.06E-05
8.91173	0.999759	1.09E-05
8.97723	0.999756	1.12E-05
9.0433	0.999752	1.15E-05
9.10981	0.999748	1.19E-05
9.17684	0.999744	1.22E-05
9.24437	0.999741	1.25E-05
9.31235	0.999737	1.29E-05
9.38084	0.999733	1.33E-05
9.44984	0.999729	1.37E-05
9.51935	0.999725	1.41E-05
9.58944	0.99972	1.45E-05
9.65998	0.999716	1.49E-05
9.73102	0.999712	1.53E-05
9.80257	0.999708	1.57E-05
9.87471	0.999703	1.62E-05
9.94737	0.999699	1.67E-05
10.0205	0.999694	1.71E-05
10.0942	0.99969	1.76E-05
10.1685	0.999685	1.81E-05
10.2433	0.99968	1.86E-05
10.3187	0.999675	1.92E-05
10.3946	0.999671	1.97E-05
10.471	0.999666	2.03E-05
10.5481	0.999661	2.09E-05
10.6256	0.999656	2.15E-05
10.7038	0.99965	2.21E-05
10.7826	0.999645	2.27E-05
10.8619	0.99964	2.34E-05
10.9418	0.999634	2.40E-05
11.0223	0.999629	2.47E-05
11.1033	0.999623	2.54E-05
11.185	0.999618	2.61E-05
11.2673	0.999612	2.69E-05
11.3502	0.999606	2.77E-05
11.4337	0.9996	2.84E-05
11.5178	0.999594	2.93E-05
11.6025	0.999588	3.01E-05
11.6878	0.999582	3.10E-05
11.7739	0.999576	3.18E-05
11.8605	0.999569	3.27E-05
11.9477	0.999563	3.37E-05
12.0356	0.999556	3.46E-05
12.1241	0.99955	3.56E-05
12.2133	0.999543	3.66E-05
12.3031	0.999536	3.76E-05
12.3937	0.999529	3.87E-05
12.4849	0.999522	3.98E-05
12.5767	0.999515	4.09E-05
12.6692	0.999508	4.21E-05
12.7624	0.999501	4.32E-05
12.8563	0.999493	4.45E-05
12.9509	0.999485	4.57E-05
13.0462	0.999478	4.70E-05
13.1421	0.99947	4.83E-05
13.2388	0.999462	4.97E-05
13.3362	0.999454	5.11E-05
13.4343	0.999446	5.25E-05
13.5331	0.999438	5.40E-05
13.6327	0.999429	5.55E-05
13.733	0.999421	5.70E-05
13.834	0.999412	5.86E-05
13.9358	0.999404	6.02E-05
14.0383	0.999395	6.19E-05
14.1416	0.999386	6.37E-05
14.2456	0.999377	6.54E-05
14.3504	0.999368	6.73E-05
14.456	0.999358	6.92E-05
14.5623	0.999349	7.11E-05
14.6694	0.999339	7.31E-05
14.7773	0.999329	7.51E-05
14.8861	0.999319	7.72E-05
14.9956	0.999309	7.94E-05
15.1059	0.999299	8.16E-05
15.217	0.999289	8.39E-05
15.3289	0.999279	8.62E-05
15.4417	0.999268	8.86E-05
15.5553	0.999258	9.11E-05
15.6697	0.999247	9.36E-05
15.785	0.999236	9.63E-05
15.9011	0.999225	9.89E-05
16.0181	0.999216	0.000101689
16.0238	0.999216	0.000101191
16.05	0.999212	9.99E-05
16.0756	0.999208	9.98E-05
16.1007	0.999205	0.000103907
16.1259	0.999203	0.000102259
16.1512	0.999201	0.000105453
16.1761	0.9992	0.00010392
16.2011	0.999197	0.000103166
16.2264	0.999194	0.000103907
16.2515	0.999191	0.000105367
16.276	0.999189	0.000104775
16.3013	0.999185	0.000104684
16.3265	0.999181	0.000107295
16.3512	0.999181	0.000111743
16.3766	0.99918	0.000108871
16.401	0.999177	0.000108759
16.426	0.999173	0.000107774
16.4515	0.999169	0.000109811
16.4764	0.999168	0.000115151
16.5011	0.999169	0.000113307
16.5263	0.999165	0.000109658
16.5515	0.999161	0.000112989
16.5763	0.999159	0.00011133
16.6013	0.999154	0.000113251
16.6264	0.999152	0.000117006
16.6512	0.999152	0.000117396
16.6763	0.99915	0.00011466
16.7013	0.999146	0.000116761
16.7262	0.999143	0.000117688
16.7512	0.999141	0.000119193
16.7765	0.99914	0.000119109
16.8012	0.999137	0.000119577
16.8264	0.999135	0.000119053
16.8514	0.999132	0.000120559
16.876	0.999129	0.000118558
16.9015	0.999125	0.000120764
16.9262	0.999124	0.000124072
16.9512	0.999121	0.000121059
16.976	0.999117	0.000123943
17.0015	0.999115	0.000125105
17.0265	0.999114	0.000126601
17.0514	0.999112	0.000125582
17.0764	0.999109	0.000127814
17.1016	0.999108	0.000126646
17.1263	0.999104	0.000126441
17.1514	0.999102	0.000128246
17.1762	0.999099	0.000127064
17.2012	0.999096	0.00012803
17.2264	0.999093	0.000129533
17.2511	0.99909	0.000130058
17.2764	0.999088	0.00013154
17.3016	0.999086	0.000130836
17.3262	0.999083	0.000131703
17.3512	0.99908	0.000132395
17.3765	0.999077	0.000132914
17.4012	0.999075	0.000134612
17.4261	0.999072	0.000135253
17.4514	0.999071	0.000136325
17.4762	0.999069	0.000135851
17.5013	0.999066	0.000135771
17.5262	0.999062	0.000135338
17.5514	0.999059	0.000138289
17.576	0.999057	0.000138395
17.6015	0.999054	0.000137945
17.6263	0.999051	0.000140532
17.6509	0.999049	0.00014046
17.6764	0.999046	0.000141444
17.7015	0.999043	0.000142897
17.7261	0.999042	0.000143643
17.7514	0.999039	0.000142822
17.7765	0.999036	0.000143945
17.801	0.999033	0.000142528
17.8264	0.999029	0.000145386
17.8513	0.999027	0.000146054
17.8763	0.999025	0.000148228
17.9015	0.999023	0.000146954
17.9265	0.999021	0.00014866
17.9515	0.999018	0.000147082
17.9762	0.999014	0.000148057
18.0012	0.999011	0.000149353
18.0263	0.999008	0.000151357
18.0511	0.999006	0.000150734
18.0765	0.999002	0.000151396
18.101	0.999	0.000154066
18.1265	0.998998	0.000153091
18.1516	0.998994	0.000155154
18.1763	0.998993	0.000156627
18.2014	0.998991	0.000155413
18.2265	0.998987	0.000155056
18.251	0.998984	0.000158445
18.2762	0.998983	0.000158287
18.3013	0.998979	0.00015671
18.3264	0.998976	0.000160561
18.3516	0.998974	0.000158429
18.3763	0.998969	0.000158149
18.4014	0.998966	0.000162131
18.4259	0.998964	0.000163639
18.4511	0.998963	0.000164772
18.4764	0.998961	0.000163301
18.5013	0.998956	0.000162128
18.5263	0.998953	0.00016622
18.5515	0.998951	0.000165754
18.5765	0.998948	0.000166702
18.6013	0.998944	0.000167485
18.6263	0.998943	0.000170498
18.6515	0.998941	0.000168693
18.6763	0.998937	0.000168655
18.7012	0.998933	0.000170028
18.7264	0.99893	0.000173382
18.7511	0.998929	0.000174406
18.7763	0.998927	0.000172658
18.8016	0.998923	0.000173755
18.826	0.99892	0.000175523
18.8515	0.998917	0.00017518
18.8765	0.998914	0.000176642
18.9011	0.998911	0.000177699
18.9263	0.998909	0.000179155
18.9515	0.998907	0.000178285
18.9763	0.998903	0.000179862
19.0015	0.9989	0.000180707
19.0262	0.998899	0.000182747
19.0512	0.998896	0.00017955
19.0766	0.99889	0.000180577
19.1013	0.998886	0.000184313
19.1263	0.998886	0.000187277
19.1512	0.998883	0.000185285
19.1762	0.998881	0.00018893
19.2013	0.998879	0.000186314
19.2263	0.998875	0.000188272
19.2513	0.998871	0.000187268
19.2762	0.998868	0.000191325
19.301	0.998866	0.000192163
19.3264	0.998863	0.000191803
19.3511	0.99886	0.000193476
19.3764	0.998858	0.00019528
19.4015	0.998856	0.000195025
19.426	0.998853	0.000195845
19.4512	0.99885	0.000194983
19.4762	0.998845	0.000196731
19.5011	0.998845	0.000201023
19.5264	0.998843	0.000196744
19.5514	0.998838	0.000198514
19.576	0.998834	0.000198825
19.6013	0.998831	0.00020086
19.6264	0.998827	0.000201233
19.6513	0.998824	0.000205005
19.6761	0.998822	0.000204733
19.7015	0.998819	0.000206091
19.7265	0.998818	0.000210199
19.751	0.998816	0.000207483
19.7765	0.998812	0.000208206
19.8011	0.998809	0.000210237
19.8263	0.998806	0.000210769
19.8514	0.998804	0.000212887
19.876	0.998802	0.000212902
19.9013	0.998798	0.000212795
19.9267	0.998795	0.000216005
19.9509	0.998794	0.000215584
19.9763	0.99879	0.000214396
20.0014	0.998786	0.000216329
20.026	0.998785	0.00022026
20.051	0.998784	0.000217438
20.0762	0.998778	0.000214331
20.1012	0.998773	0.000221348
20.1264	0.998772	0.000220899
20.1513	0.998769	0.000221156
20.1763	0.998766	0.000223627
20.2012	0.998764	0.000223912
20.2264	0.99876	0.000223541
20.2513	0.998756	0.000225407
20.2763	0.998755	0.000228141
20.3015	0.998753	0.000226261
20.3262	0.998748	0.000226496
20.3513	0.998744	0.00022895
20.3764	0.998742	0.000231557
20.4013	0.998739	0.000230765
20.4263	0.998737	0.000235069
20.4515	0.998734	0.000231086
20.4762	0.99873	0.000235087
20.5014	0.998728	0.000235913
20.5262	0.998725	0.000235453
20.5514	0.99872	0.00023618
20.5766	0.998718	0.000243016
20.6013	0.998719	0.000240298
20.6263	0.998714	0.000239114
20.6514	0.99871	0.000241282
20.6761	0.998707	0.000242028
20.7016	0.998704	0.000243425
20.7263	0.998702	0.000244174
20.7513	0.998699	0.000244411
20.7765	0.998695	0.000244595
20.8012	0.998691	0.000247411
20.8264	0.998689	0.000248945
20.8513	0.998685	0.000248944
20.8764	0.998682	0.000253962
20.9015	0.998682	0.000254101
20.9262	0.998679	0.000251505
20.9512	0.998675	0.000255375
20.9761	0.998674	0.000256208
21.0014	0.998671	0.00025547
21.0264	0.998666	0.000254576
21.0513	0.998663	0.000259237
21.0765	0.998662	0.000258135
21.1014	0.998658	0.000257812
21.1262	0.998653	0.000259536
21.1512	0.998649	0.000261901
21.1763	0.998648	0.000266641
21.2013	0.998648	0.000264373
21.2262	0.998644	0.000264464
21.2512	0.99864	0.000264175
21.2764	0.998636	0.000266743
21.3014	0.998633	0.000268236
21.3263	0.998631	0.000271755
21.3511	0.99863	0.000272338
21.376	0.998628	0.000271743
21.4015	0.998623	0.000270081
21.4261	0.99862	0.000274592
21.4511	0.998619	0.000275083
21.4764	0.998616	0.000273675
21.5015	0.998613	0.000276799
21.526	0.998609	0.000273956
21.5514	0.998606	0.000281753
21.5761	0.998611	0.000283484
21.5969	0.998609	0.000270536
21.6494	0.998594	0.000274534
21.7003	0.998585	0.000276418
21.7511	0.998578	0.000281993
21.8014	0.998571	0.000283219
21.8515	0.998565	0.000287297
21.9017	0.998559	0.000287239
21.9521	0.998552	0.000290355
22.0017	0.998546	0.000292644
22.0519	0.998539	0.000294668
22.1021	0.998532	0.000296057
22.1518	0.998525	0.000298314
22.202	0.998516	0.000299633
22.2519	0.998508	0.000304496
22.3018	0.9985	0.000306407
22.3522	0.998491	0.00031205
22.4022	0.998483	0.000317335
22.4518	0.998475	0.000323921
22.5019	0.998469	0.000332193
22.5522	0.998465	0.000340807
22.6018	0.998463	0.00034794
22.652	0.998462	0.00035471
22.7019	0.998462	0.000361174
22.7518	0.998464	0.000365425
22.8019	0.998467	0.00036941
22.8518	0.998471	0.000368921
22.9018	0.998475	0.000365911
22.9522	0.998474	0.000356231
23.0021	0.998467	0.000347582
23.0518	0.998458	0.00034753
23.1019	0.998455	0.000351697
23.1521	0.998461	0.000351804
23.202	0.998462	0.000328716
23.252	0.998439	0.000307287
23.3021	0.998417	0.000315841
23.3518	0.998406	0.000318404
23.4022	0.998394	0.000319753
23.4521	0.998384	0.000324675
23.5017	0.998375	0.000325517
23.552	0.998365	0.000329056
23.6019	0.998357	0.000330798
23.6521	0.998348	0.000333668
23.702	0.99834	0.000335502
23.7518	0.998331	0.000337688
23.802	0.998322	0.000340694
23.852	0.998313	0.000343621
23.9019	0.998306	0.000346708
23.9518	0.998297	0.000348551
24.0019	0.998289	0.000352651
24.0522	0.998282	0.000355375
24.1017	0.998275	0.000356432
24.1519	0.998266	0.000359789
24.2019	0.998259	0.000362916
24.2523	0.998251	0.000364081
24.302	0.998242	0.000367076
24.3521	0.998234	0.000370784
24.402	0.998227	0.000374185
24.452	0.99822	0.000375821
24.5019	0.998211	0.000377436
24.552	0.998204	0.000382987
24.6017	0.998197	0.000384146
24.6522	0.998188	0.000386765
24.702	0.998181	0.000390111
24.7519	0.998173	0.000393054
24.8021	0.998165	0.000395006
24.852	0.998157	0.000400004
24.9022	0.99815	0.000401677
24.9521	0.998142	0.000404974
25.0018	0.998135	0.000407858
25.0519	0.998127	0.000410874
25.1022	0.99812	0.000415297
25.1518	0.998113	0.000416964
25.202	0.998105	0.000419308
25.2519	0.998097	0.000422566
25.302	0.998089	0.000425065
25.352	0.998081	0.000427949
25.4018	0.998074	0.000432345
25.4518	0.998066	0.000433697
25.502	0.998058	0.000437247
25.5518	0.99805	0.00044081
25.6018	0.998042	0.000444498
25.652	0.998035	0.000447105
25.7019	0.998027	0.00045033
25.7521	0.998019	0.000453942
25.8017	0.998012	0.000457545
25.8521	0.998005	0.000459613
25.902	0.997996	0.000462727
25.9522	0.997989	0.000467492
26.0021	0.997982	0.000469938
26.0518	0.997974	0.000472969
26.102	0.997966	0.000475511
26.1521	0.997958	0.000478524
26.202	0.99795	0.000481522
26.2519	0.997942	0.000485075
26.3021	0.997934	0.000487692
26.3518	0.997926	0.000493383
26.4019	0.997919	0.000495907
26.4521	0.997911	0.000498559
26.5018	0.997903	0.000503631
26.5522	0.997896	0.000505794
26.6019	0.997888	0.000509816
26.6518	0.997881	0.000513263
26.7019	0.997872	0.000514203
26.7521	0.997864	0.00052107
26.802	0.997857	0.00052342
26.8516	0.99785	0.000526663
26.9021	0.997843	0.000529825
26.952	0.997834	0.000530351
27.0022	0.997824	0.000536151
27.0519	0.997818	0.000540069
27.1021	0.997809	0.000541155
27.1517	0.997802	0.000547164
27.2022	0.997793	0.000545227
27.2518	0.997783	0.000553192
27.302	0.997775	0.000555712
27.3519	0.997767	0.000560186
27.402	0.99776	0.000563475
27.4519	0.99775	0.000563884
27.5018	0.997741	0.000572045
27.5518	0.997734	0.000575128
27.6022	0.997726	0.000579298
27.6521	0.997719	0.000581057
27.7017	0.997709	0.000581511
27.7519	0.997697	0.000586044
27.8021	0.997687	0.00059209
27.852	0.99768	0.000596575
27.9019	0.997668	0.000595484
27.9521	0.997655	0.00060528
28.002	0.997641	0.000606353
28.1037	0.997625	0.000642808
28.2038	0.997624	0.000651418
28.3039	0.997613	0.000655571
28.4041	0.997599	0.000662077
28.5039	0.997584	0.000670743
28.604	0.997571	0.000681051
28.7038	0.997559	0.000686906
28.8036	0.997545	0.000693806
28.9038	0.997527	0.000697319
29.0033	0.997513	0.000711515
29.1044	0.9975	0.00071484
29.2042	0.997482	0.000718124
29.3037	0.997462	0.000728321
29.4041	0.997444	0.00073753
29.5043	0.997429	0.000753528
29.6041	0.997417	0.00075951
29.7039	0.9974	0.000767452
29.8031	0.997383	0.00077689
29.9042	0.997368	0.000791485
30.0043	0.997359	0.000800485
30.1041	0.997342	0.000799244
30.2036	0.997324	0.000814653
30.3041	0.997309	0.000819645
30.4045	0.997293	0.000833243
30.504	0.997281	0.000840264
30.6038	0.997266	0.00084638
30.7033	0.997248	0.000851446
30.8044	0.997229	0.000861076
30.9039	0.997211	0.000871708
31.0031	0.997196	0.000883314
31.1042	0.997183	0.000892074
31.2037	0.997166	0.000896196
31.3041	0.997147	0.000905603
31.4039	0.997126	0.000911475
31.5034	0.997109	0.000931075
31.6039	0.997095	0.000936551
31.7043	0.997075	0.000942639
31.8035	0.997053	0.000955224
31.904	0.997036	0.000972486
32.0038	0.997023	0.000984516
32.1039	0.997007	0.000990515
32.204	0.996988	0.00100305
32.3039	0.99697	0.00101431
32.4037	0.996954	0.00102749
32.5038	0.996936	0.0010382
32.6043	0.996919	0.00105237
32.7041	0.996903	0.00106451
32.8039	0.996887	0.00107799
32.9034	0.996871	0.00108877
33.0038	0.996855	0.00110329
33.1043	0.99684	0.00111505
33.2038	0.996825	0.00112793
33.3036	0.99681	0.00113901
33.4041	0.996792	0.00114913
33.5045	0.996775	0.00116626
33.6037	0.996762	0.00117788
33.7041	0.996746	0.0011905
33.8033	0.996731	0.0012033
33.9044	0.996716	0.00121602
34.0039	0.9967	0.00122814
34.1037	0.996686	0.00124447
34.2039	0.996673	0.00125425
34.304	0.996658	0.00126636
34.4041	0.996645	0.00127812
34.5039	0.996627	0.00128381
34.6037	0.996608	0.00130151
34.7033	0.996594	0.00131681
34.804	0.996582	0.00132974
34.9044	0.996569	0.00134046
35.0036	0.996553	0.00134938
35.1038	0.996536	0.00136093
35.2042	0.996518	0.00137477
35.304	0.996504	0.0013916
35.4035	0.996492	0.0014018
35.504	0.996474	0.00140782
35.6041	0.996454	0.00142665
35.7039	0.996441	0.0014417
35.8038	0.996427	0.00145336
35.9039	0.996412	0.00146597
36.0036	0.996395	0.00147783
36.1042	0.996381	0.00149559
36.2042	0.996367	0.00150428
36.3044	0.99635	0.00151746
36.4036	0.996336	0.00153264
36.5037	0.99632	0.00154133
36.6042	0.996301	0.00155539
36.7037	0.996287	0.00157384
36.8041	0.996274	0.0015844
36.9036	0.996256	0.00159529
37.0044	0.996239	0.00161099
37.1039	0.996223	0.00162473
37.2034	0.996208	0.00163847
37.3039	0.996189	0.00165078
37.4036	0.996175	0.00167248
37.5047	0.99616	0.00167845
37.6037	0.996139	0.00169465
37.7038	0.996123	0.00171342
37.8039	0.996106	0.00172509
37.9043	0.996087	0.00174507
38.0044	0.996073	0.00176492
38.1037	0.996057	0.00177846
38.2041	0.996042	0.00180173
38.3033	0.996028	0.00181317
38.4044	0.996011	0.00183523
38.5042	0.995998	0.00185367
38.6037	0.995986	0.00187426
38.7041	0.995973	0.00189097
38.8039	0.995964	0.00191527
38.9037	0.995957	0.00192557
39.0039	0.995942	0.00193766
39.1034	0.995928	0.00195959
39.2045	0.995924	0.0019796
39.3043	0.995914	0.00198443
39.4038	0.995903	0.00200242
39.504	0.99589	0.00200738
39.6041	0.995878	0.00202546
39.7045	0.995865	0.00202912
39.8036	0.995847	0.00204141
39.9034	0.99583	0.00205162
40.0036	0.995815	0.00206218
40.1038	0.995788	0.00205687
40.2039	0.995752	0.00207635
40.304	0.995721	0.00209533
40.4038	0.99569	0.00211891
40.504	0.995655	0.00214053
40.6045	0.99562	0.00217802
40.7036	0.995587	0.00221343
40.8032	0.995552	0.00225916
40.9039	0.995523	0.00232124
41.004	0.995505	0.0023872
41.1037	0.995497	0.00246108
41.2036	0.99552	0.00255301
41.3038	0.995549	0.00259143
41.404	0.995567	0.00266075
41.5037	0.995639	0.00275265
41.6042	0.995715	0.00274055
41.7039	0.995762	0.00275886
41.8041	0.995808	0.00275503
41.904	0.995857	0.00276907
42.0035	0.9959	0.00274475
42.1039	0.995968	0.00276282
42.2039	0.995999	0.00265125
42.3045	0.995999	0.00266237
42.404	0.996041	0.00261785
42.504	0.996018	0.00251567
42.6039	0.995986	0.00253454
42.7042	0.995973	0.00248654
42.8041	0.995943	0.00248243
42.9037	0.995913	0.00246891
43.0038	0.995893	0.00250132
43.1035	0.995924	0.00253369
43.2043	0.995973	0.00250177
43.3036	0.995979	0.00242674
43.4034	0.99599	0.0024113
43.5039	0.995958	0.00227174
43.6036	0.995889	0.00227107
43.7043	0.995854	0.00222142
43.8042	0.995786	0.00216386
43.9037	0.995661	0.00211864
43.9937	0.995579	0.00220841
44.2014	0.995511	0.00225427
44.4035	0.995436	0.00228246
44.6047	0.995363	0.00232501
44.8052	0.995301	0.00236971
45.0056	0.995244	0.00241121
45.2054	0.99519	0.002457
45.4059	0.995143	0.00250354
45.606	0.995098	0.00254589
45.8062	0.995055	0.00259283
46.0059	0.995017	0.00263878
46.2058	0.994981	0.00268209
46.4061	0.994947	0.00272726
46.606	0.994916	0.00276935
46.8059	0.994887	0.00281067
47.0054	0.994858	0.00284784
47.2062	0.994827	0.00288522
47.4055	0.994798	0.00292434
47.6061	0.99477	0.00296088
47.8058	0.994739	0.00299512
48.0063	0.994708	0.00303289
48.206	0.994678	0.00306876
48.4059	0.994646	0.00310683
48.6061	0.994616	0.00314819
48.8055	0.994587	0.00318636
49.0065	0.994558	0.00322863
49.206	0.994532	0.00326999
49.4062	0.994509	0.00331275
49.6057	0.994488	0.00335146
49.8062	0.994465	0.00338685
50.0058	0.994443	0.0034277
50.2053	0.994425	0.00346395
50.4064	0.994407	0.00349789
50.6055	0.994388	0.00352797
50.8063	0.994368	0.00355892
51.0053	0.994348	0.0035867
51.206	0.994328	0.00361263
51.406	0.994306	0.00363244
51.6063	0.994278	0.00365149
51.8055	0.994247	0.00366995
52.0061	0.994209	0.00368575
52.2058	0.994167	0.00371118
52.4055	0.994126	0.00373419
52.6059	0.99408	0.0037587
52.806	0.994031	0.00378607
53.0058	0.993975	0.00381252
53.2055	0.993917	0.00385538
53.4058	0.993865	0.00389812
53.606	0.993809	0.0039377
53.8059	0.993751	0.003989
54.006	0.993692	0.00403811
54.206	0.993631	0.00409962
54.4056	0.993577	0.00417039
54.6059	0.993527	0.00424071
54.8065	0.993486	0.00431887
55.0054	0.993447	0.00438358
55.2065	0.993401	0.00445619
55.4061	0.993367	0.00454276
55.6059	0.993339	0.00461273
55.8056	0.993309	0.00468752
56.0058	0.993287	0.00476352
56.2059	0.993262	0.00482016
56.4053	0.993233	0.00489081
56.6059	0.993208	0.00494763
56.8059	0.993173	0.00499892
57.006	0.993132	0.00505245
57.2056	0.993081	0.00509536
57.4061	0.993007	0.00513785
57.6059	0.992922	0.00520404
57.8063	0.992824	0.00526382
58.0056	0.992706	0.00534198
58.2063	0.992568	0.00543944
58.4059	0.992411	0.00556462
58.6055	0.992244	0.00573017
58.8057	0.992068	0.00593421
59.0061	0.99189	0.00619221
59.2061	0.991717	0.00650711
59.4053	0.991577	0.00690945
59.6066	0.991498	0.00737315
59.8056	0.991492	0.00789029
60.0059	0.991599	0.00846375
60.2061	0.991833	0.00901905
60.4056	0.992144	0.00950607
60.6058	0.992561	0.0100146
60.8055	0.993055	0.0103638
61.006	0.993589	0.0106887
61.2057	0.994156	0.0108755
61.4063	0.994706	0.0109926
61.6062	0.995228	0.0110443
61.8064	0.99574	0.0110835
62.0052	0.996247	0.0110667
62.2059	0.996745	0.0110213
62.4059	0.997234	0.0109483
62.6057	0.997759	0.0108869
62.8059	0.998322	0.010717
63.006	0.998891	0.0104749
63.2058	0.999404	0.0100751
63.4059	0.999831	0.00964234
63.6059	1.00012	0.00909498
63.8053	1.00026	0.00864615
64.0062	1.00031	0.00828042
64.2061	1.0003	0.00804897
64.4062	1.00049	0.0082002
64.6059	1.00095	0.00811766
64.8055	1.0016	0.00804841
65.006	1.0025	0.0076665
65.2056	1.00333	0.00668403
65.4062	1.0039	0.00550757
65.6055	1.00407	0.0038711
65.8061	1.00348	0.00219637
66.0058	1.00237	0.00117097
66.206	1.00127	0.000773996
66.4056	1.00043	0.000693999
66.6061	0.999809	0.000667536
66.8057	0.999311	0.000673274
67.0061	0.9989	0.000683291
67.2066	0.998552	0.000697589
67.4053	0.99825	0.000696396
67.606	0.997967	0.000693713
67.8061	0.997706	0.000699894
68.0058	0.997482	0.00071858
68.9	0.996595	0.000663742
69.3001	0.996241	0.000679801
69.6999	0.995923	0.000684487
70.0999	0.995627	0.000699762
70.5001	0.995354	0.000716273
70.9	0.995102	0.000732963
71.3	0.99486	0.000737933
71.7	0.994625	0.00075382
72.0998	0.994404	0.000770968
72.5	0.994196	0.000788308
72.8998	0.993992	0.000792453
73.2998	0.993792	0.000810065
73.6998	0.993601	0.000817477
74.1002	0.993406	0.000822856
74.5	0.993214	0.00083974
74.9002	0.993031	0.000857953
75.3	0.992857	0.000876363
75.7	0.992681	0.000880868
76.1001	0.992503	0.000899561
76.5002	0.992333	0.00091845
76.9002	0.99217	0.000936354
77.3	0.992004	0.000942312
77.7002	0.991836	0.000961696
78.1001	0.991679	0.000981275
78.5002	0.991522	0.0009886
78.8998	0.991357	0.000994795
79.3	0.991192	0.00101481
79.7002	0.991033	0.00103378
80.0998	0.99088	0.00105419
80.5002	0.990724	0.0010607
80.9	0.990565	0.00108015
81.3	0.990414	0.00110107
81.7002	0.990259	0.0011078
82.1	0.9901	0.00112903
82.4999	0.989948	0.00114918
82.8998	0.989801	0.00117083
83.2997	0.989653	0.00117788
83.7001	0.989494	0.00118636
84.0999	0.989334	0.00120847
85.6399	0.98876	0.0013019
86.3599	0.988503	0.0013302
87.0799	0.988236	0.00134754
87.8002	0.987962	0.00137651
88.5198	0.98769	0.00140732
89.2398	0.987417	0.00143711
89.9599	0.987144	0.00147058
90.6797	0.986872	0.00150274
91.3997	0.986599	0.00153386
92.1202	0.986329	0.00156693
92.8397	0.98605	0.00158504
93.5599	0.98576	0.00161887
94.2799	0.985481	0.0016694
95.0002	0.985213	0.00170437
95.7197	0.984933	0.00172375
96.4397	0.984643	0.0017579
97.16	0.984351	0.00179414
97.8802	0.984071	0.0018481
98.6003	0.983792	0.00187048
99.3199	0.9835	0.00190658
100.04	0.983209	0.00194486
100.76	0.982921	0.00198193
101.48	0.982619	0.00200383
102.2	0.982317	0.00206371
102.92	0.982027	0.00210235
103.64	0.981732	0.00214326
104.36	0.981438	0.00218292
105.08	0.981134	0.00220849
105.8	0.980816	0.00224903
106.52	0.98051	0.00231175
107.24	0.980218	0.00235545
107.96	0.979911	0.00238077
108.68	0.979593	0.00242545
109.4	0.979272	0.00246878
110.12	0.978967	0.00253753
111.98	0.978151	0.00260486
112.246	0.978028	0.0026251
112.501	0.977904	0.00263097
112.755	0.977783	0.00266225
113.006	0.97767	0.00267651
113.259	0.977555	0.00269668
113.51	0.97744	0.00271003
113.759	0.97732	0.0027262
114.01	0.977202	0.00275103
114.261	0.97709	0.00277182
114.508	0.976978	0.00278885
114.759	0.976862	0.00280602
115.011	0.976747	0.00282592
115.259	0.97663	0.0028381
115.511	0.97651	0.00286257
115.761	0.976394	0.00288123
116.011	0.976279	0.00290505
116.258	0.976166	0.00291953
116.511	0.976047	0.00294101
116.76	0.975932	0.00296146
117.01	0.975815	0.00297946
117.259	0.975699	0.00299929
117.511	0.975577	0.00301511
117.759	0.975461	0.00304336
118.01	0.975346	0.00305858
118.26	0.975223	0.0030773
118.511	0.975106	0.0031059
118.76	0.974989	0.00312228
119.009	0.974873	0.00314936
119.261	0.974755	0.00316338
119.508	0.974638	0.00319087
119.761	0.974523	0.00320803
120.011	0.974399	0.00322015
120.262	0.974279	0.00325303
120.509	0.974159	0.00326494
120.761	0.974038	0.00330008
121.01	0.973927	0.00332114
121.26	0.973809	0.00333521
121.511	0.973684	0.00335645
121.762	0.973565	0.00338556
122.01	0.973451	0.00340598
122.259	0.973333	0.00342608
122.51	0.973214	0.00344733
122.759	0.973097	0.00346686
123.009	0.972978	0.00348553
123.259	0.97285	0.00349672
123.511	0.972726	0.00353548
123.76	0.97261	0.00354935
124.012	0.972487	0.00357395
124.261	0.972368	0.00359645
124.51	0.972248	0.00361738
124.759	0.972133	0.00364362
124.983	0.972028	0.00364948
125.5	0.97176	0.00368252
126.008	0.971504	0.00374422
126.513	0.971263	0.00378806
127.013	0.971013	0.00382165
127.515	0.970757	0.00386977
128.015	0.9705	0.0039117
128.515	0.970249	0.00397396
129.016	0.970009	0.00401897
129.515	0.969746	0.00404023
130.015	0.969483	0.00411533
130.516	0.969237	0.00416098
131.015	0.968983	0.00420838
131.516	0.96873	0.00426266
132.015	0.968482	0.00430741
132.514	0.968225	0.00434663
133.015	0.96796	0.00439305
133.516	0.967703	0.00445225
134.017	0.967446	0.00448891
134.515	0.967183	0.00453795
135.016	0.966911	0.00457912
135.516	0.966649	0.00465006
136.016	0.966393	0.0046877
136.517	0.966122	0.00473477
137.014	0.965859	0.00479156
137.515	0.965593	0.00483302
138.017	0.965319	0.00488232
138.515	0.965046	0.00493528
139.017	0.964773	0.00499072
139.515	0.964504	0.00504766
140.015	0.964237	0.00509958
140.516	0.963967	0.00514986
141.015	0.963687	0.0051906
141.515	0.96341	0.00526102
142.014	0.963141	0.00530811
142.515	0.962874	0.00536799
143.016	0.962592	0.00538825
143.515	0.962299	0.00545231
144.016	0.962014	0.00550383
144.515	0.961727	0.00556181
145.015	0.961438	0.00561978
145.517	0.961155	0.00568868
146.016	0.960874	0.00574028
146.516	0.960585	0.00579913
147.016	0.960297	0.0058624
147.514	0.960022	0.00593546
148.016	0.959746	0.0059795
148.515	0.959464	0.0060312
149.015	0.959172	0.00606996
149.515	0.958873	0.00612382
150.014	0.958579	0.00617845
150.514	0.958267	0.00621225
151.014	0.957949	0.00629364
151.515	0.95765	0.00637139
152.016	0.95737	0.0064522
152.515	0.957079	0.00648456
153.015	0.956772	0.00655326
153.516	0.956472	0.0066149
154.015	0.956175	0.00667755
154.517	0.955875	0.00673145
155.014	0.955568	0.00677912
155.516	0.95523	0.0068262
156.016	0.954913	0.00694602
156.516	0.954637	0.0070204
157.016	0.954339	0.00705779
157.514	0.954028	0.00712685
158.016	0.953721	0.00718386
158.516	0.953401	0.00723668
159.015	0.953085	0.00731504
159.516	0.952772	0.00737335
160.014	0.952459	0.00744158
160.514	0.952127	0.00748684
161.016	0.951787	0.00758422
161.515	0.951506	0.00769919
162.015	0.951204	0.00769521
162.514	0.950845	0.00776346
163.015	0.950518	0.00787266
163.517	0.950209	0.00794008
164.016	0.949887	0.00801218
164.516	0.949577	0.00809821
165.015	0.949275	0.00815728
165.515	0.948963	0.00820139
166.017	0.948586	0.00821327
166.515	0.948268	0.00839163
167.014	0.947947	0.00835073
167.515	0.947556	0.00847089
168.015	0.947239	0.0086001
168.517	0.946961	0.00868175
169.014	0.946638	0.00868157
169.514	0.946287	0.00876484
170.015	0.945947	0.00880964
170.515	0.945555	0.00885083
171.017	0.945212	0.00902733
171.516	0.944887	0.00904871
172.015	0.944553	0.00919116
172.517	0.944296	0.0092583
172.954	0.943978	0.009169
173.995	0.943161	0.00939378
175.014	0.94243	0.0095243
176.024	0.941681	0.00970458
177.026	0.940965	0.00989592
178.031	0.940239	0.0100424
179.037	0.939484	0.0102163
180.036	0.938748	0.0104139
181.032	0.937998	0.0105704
182.036	0.937245	0.0107986
183.034	0.936505	0.0109693
184.033	0.935753	0.0111805
185.039	0.934991	0.0113595
186.035	0.934222	0.0115717
187.036	0.933461	0.011784
188.035	0.932691	0.0119841
189.034	0.931927	0.0122119
190.035	0.931153	0.0123975
191.036	0.930333	0.0126039
192.035	0.929556	0.0129
193.036	0.9288	0.0130927
194.035	0.928001	0.0133081
195.04	0.927199	0.0135476
196.032	0.926401	0.0137642
197.035	0.925571	0.0140054
198.036	0.924778	0.0142961
199.028	0.92398	0.01449
200.034	0.923144	0.0147679
201.037	0.922327	0.0150198
202.038	0.921509	0.0152868
203.033	0.920684	0.0155299
204.034	0.919856	0.0158196
205.032	0.919028	0.0160661
206.031	0.918187	0.0163521
207.034	0.917346	0.0166283
208.036	0.916519	0.0169316
209.034	0.915683	0.0171785
210.035	0.914836	0.0174831
211.034	0.913985	0.0177394
212.033	0.913118	0.0180447
213.034	0.912272	0.0183538
214.035	0.911415	0.0186288
215.032	0.910546	0.0189358
216.033	0.909681	0.0192402
217.041	0.908808	0.0195509
218.032	0.907935	0.0198465
219.034	0.907066	0.020193
220.035	0.906195	0.0204776
221.033	0.905306	0.020813
222.034	0.904438	0.0211502
223.033	0.903576	0.0214607
224.032	0.902686	0.0217563
225.033	0.901782	0.0220867
226.032	0.900881	0.0224149
227.033	0.899992	0.0227698
228.027	0.899097	0.0230738
229.035	0.898195	0.0234514
230.036	0.89731	0.0237582
231.03	0.896412	0.0240901
232.034	0.895489	0.0243959
233.032	0.894547	0.0247352
234.033	0.893631	0.025113
235.035	0.892736	0.0254369
236.035	0.891761	0.0257026
237.032	0.890784	0.026131
238.035	0.889876	0.0265079
239.037	0.888931	0.0268206
240.028	0.887965	0.027199
241.029	0.887036	0.0276067
242.037	0.886088	0.0279376
243.032	0.885163	0.0283478
244.035	0.88422	0.028637
245.036	0.88321	0.0289932
246.037	0.882206	0.029402
247.036	0.881311	0.0298819
248.032	0.8804	0.0301163
249.038	0.879386	0.0304788
250.034	0.87839	0.0308213
251.038	0.877371	0.0311953
252.039	0.876372	0.0315882
253.035	0.875381	0.0319496
254.034	0.874377	0.0323179
255.035	0.873342	0.0326635
256.031	0.872296	0.0330598
257.037	0.871256	0.0334664
258.034	0.870239	0.033873
259.035	0.86922	0.0342536
260.036	0.868173	0.0346213
261.037	0.867108	0.0350158
262.033	0.866061	0.0354249
263.032	0.865001	0.0358028
264.035	0.863918	0.0362095
265.032	0.862847	0.036621
266.035	0.861768	0.0370306
267.034	0.860685	0.0374379
268.037	0.859591	0.0378543
269.034	0.85851	0.0382753
270.03	0.857433	0.0386772
271.031	0.856315	0.0390499
272.03	0.855175	0.0394704
273.034	0.854041	0.0399029
274.037	0.852913	0.0403232
275.036	0.851764	0.0407178
276.032	0.850583	0.0411343
277.038	0.849409	0.0416111
278.032	0.848255	0.0420248
279.033	0.84706	0.0424597
280.039	0.845839	0.0429011
281.035	0.844618	0.043376
282.034	0.84342	0.0438747
283.037	0.842183	0.0443088
284.034	0.840951	0.0448641
285.033	0.839736	0.0453431
286.031	0.838527	0.0459013
287.035	0.837341	0.0464001
288.038	0.836143	0.046882
289.032	0.834889	0.0473011
290.036	0.833608	0.0478562
291.034	0.832328	0.048327
292.031	0.831076	0.0489338
293.034	0.829803	0.0493764
294.033	0.828529	0.0499884
295.032	0.827249	0.0504173
296.037	0.825875	0.0509701
297.031	0.824529	0.0515414
298.035	0.823177	0.0521392
299.036	0.821777	0.0527057
300.037	0.820352	0.053431
301.036	0.819052	0.0542606
302.03	0.817936	0.0550447
303.036	0.816832	0.055585
304.034	0.815576	0.0560223
305.035	0.814195	0.0565689
306.036	0.812796	0.0572082
307.031	0.811488	0.0579576
308.034	0.810255	0.0586201
309.037	0.809022	0.0592246
310.032	0.807727	0.0597383
311.03	0.806389	0.0603516
312.036	0.805019	0.0609041
313.032	0.803617	0.0615309
314.034	0.802205	0.0621884
315.039	0.800866	0.0629487
316.031	0.799598	0.0635575
317.037	0.798267	0.0641418
318.036	0.796851	0.0646592
319.034	0.795433	0.0653335
320.033	0.793961	0.0658403
321.034	0.792459	0.0665955
322.038	0.791005	0.0672279
323.034	0.789513	0.0679037
324.035	0.787978	0.0685853
325.036	0.786428	0.06937
326.037	0.784986	0.0702463
327.034	0.7836	0.0709674
328.037	0.782135	0.0716808
329.031	0.780679	0.0724602
330.032	0.779268	0.0732322
331.04	0.777805	0.0739075
332.034	0.776369	0.0746887
333.035	0.774886	0.0752925
334.039	0.773289	0.0760211
335.031	0.771709	0.0768142
336.029	0.770251	0.0777511
337.035	0.768925	0.0784875
338.032	0.767407	0.0789104
339.037	0.765633	0.0795709
340.038	0.763846	0.0803924
341.037	0.762167	0.0813773
342.036	0.760565	0.0822831
343.032	0.759086	0.0833041
344.038	0.757632	0.0840257
345.03	0.755989	0.084691
346.038	0.754303	0.0856041
347.034	0.752571	0.0863061
348.035	0.750823	0.08737
349.034	0.749043	0.0881928
350.035	0.747348	0.0895335
351.032	0.745915	0.0905751
352.035	0.7445	0.0915648
353.034	0.742836	0.0922312
354.033	0.741292	0.0936428
355.036	0.740083	0.0944968
356.037	0.738853	0.095226
357.031	0.737271	0.0953658
358.032	0.73518	0.0959592
359.034	0.73337	0.0970902
360.027	0.73139	0.097393
361.026	0.729204	0.0986877
362.029	0.726944	0.0995504
363.037	0.725257	0.101856
364.029	0.723557	0.10225
365.03	0.722296	0.104963
366.034	0.721666	0.105055
367.033	0.720353	0.105624
368.036	0.718244	0.105141
369.038	0.715332	0.106249
370.037	0.713703	0.108559
371.036	0.712271	0.108683
372.037	0.710441	0.10993
373.031	0.708017	0.109822
374.033	0.705639	0.112253
375.039	0.70396	0.113261
376.037	0.702584	0.115218
377.036	0.701392	0.11557
378.037	0.699567	0.1162
379.034	0.697278	0.11665
380.033	0.695242	0.118304
381.034	0.693307	0.118783
382.035	0.691312	0.120222
383.033	0.689272	0.120584
384.035	0.686437	0.121548
385.041	0.684331	0.123897
386.032	0.682809	0.124771
387.034	0.680686	0.125655
388.034	0.678355	0.126877
389.031	0.676211	0.128495
390.034	0.674826	0.13032
391.035	0.673141	0.130489
392.034	0.671222	0.131984
393.035	0.669764	0.132461
394.034	0.66766	0.132242
395.035	0.663804	0.131679
396.034	0.660125	0.134607
397.037	0.658196	0.136666
398.036	0.656075	0.137613
399.032	0.654284	0.139485
400.037	0.651337	0.138822
401.034	0.649352	0.142699
402.035	0.646621	0.140512
403.032	0.644904	0.145699
404.031	0.641735	0.140829
405.032	0.637473	0.147086
406.036	0.635864	0.146962
407.036	0.63477	0.150858
408.032	0.635812	0.149607
409.035	0.632787	0.144181
410.036	0.626178	0.142236
411.031	0.617173	0.140648
412.033	0.608888	0.146371
490.001	0.523769	0.466002
580.999	0.567307	0.689
672	0.645082	0.941997
739.998	0.75269	1.096
919.999	1.01317	1.381
1025	1.23788	1.62
1162	1.60581	1.71801
1216	1.74209	1.726
1336	2.01191	1.739
1403	2.16547	1.74
1608	2.64578	1.702
1750	3.30016	1.752
2000	3.45906	1.803
