;  Optical constants for B.
;  
;  Data from Fernandez-Perea et al., "Optical constants of electron-beam evaporated boron films in the 6.8 - 900 eV photon energy range",
;  J. Opt. Soc. Am. A. 24, 3800 (2007)
;  
;  
;  Lambda (A) n k
;-----------------
13.78046259	0.999484	0.000051
13.900509	0.999476	0.000052
14.10049017	0.999462	0.000055
14.30053403	0.999446	0.000058
14.50056723	0.99943	0.000061
14.7005217	0.999414	0.000064
14.90051437	0.999398	0.000068
15.10050423	0.999382	0.000072
15.30045784	0.999366	0.000076
15.50054384	0.99935	0.00008
15.70056225	0.999333	0.000085
15.90050657	0.999317	0.000089
16.10958513	0.9993	0.000093
16.32789001	0.999282	0.000098
16.54600777	0.999264	0.000102
16.7641364	0.999245	0.000106
16.98250853	0.999226	0.000111
17.20067702	0.999207	0.000115
17.41889348	0.999187	0.000119
17.63694557	0.999167	0.000124
17.85512464	0.999146	0.000129
18.07323508	0.999125	0.000134
18.29161134	0.999103	0.00014
18.50980099	0.999082	0.000145
18.72788242	0.99906	0.000152
18.94624083	0.999038	0.000159
19.16441765	0.999016	0.000166
19.38252536	0.998994	0.000173
19.6006956	0.998973	0.00018
19.81876309	0.998951	0.000188
20.03720284	0.998929	0.000196
20.25521557	0.998907	0.000203
20.47329051	0.998885	0.000211
20.64064061	0.998867	0.000217
20.84083307	0.998847	0.000224
21.04066117	0.998826	0.000232
21.24071885	0.998805	0.00024
21.44090893	0.998784	0.000249
21.64075264	0.998764	0.000258
21.84089348	0.998744	0.000267
21.96081974	0.998732	0.000271
22.08089047	0.998718	0.000275
22.15071552	0.99871	0.000282
22.20069117	0.998705	0.000279
22.25089284	0.998698	0.000282
22.30092093	0.998689	0.000281
22.35077156	0.99868	0.000289
22.40084556	0.998672	0.000293
22.45073789	0.998662	0.000298
22.50085296	0.998653	0.000311
22.5507821	0.998649	0.000324
22.60093332	0.998649	0.000337
22.65089428	0.998652	0.000348
22.70066097	0.998657	0.000357
22.75064682	0.998664	0.000364
22.8008533	0.998671	0.000367
22.8508607	0.998678	0.00037
22.90066494	0.998687	0.00037
22.95068676	0.998699	0.000371
23.00092757	0.998709	0.000356
23.05096027	0.998712	0.000342
23.10078068	0.998707	0.000326
23.15081692	0.998703	0.000326
23.20063623	0.998709	0.000324
23.25067042	0.998716	0.000302
23.30092088	0.998703	0.000264
23.50099513	0.99862	0.000257
23.70090993	0.998582	0.000267
23.90102942	0.998542	0.000275
24.10080865	0.998511	0.000284
24.30062131	0.998478	0.000296
24.70100012	0.998418	0.000316
25.10106491	0.998362	0.00034
25.50065817	0.998309	0.000359
25.90072907	0.998256	0.00038
26.30071488	0.998205	0.000409
26.70116725	0.998149	0.000425
27.10096396	0.998095	0.000444
27.50070979	0.998037	0.000467
27.90111844	0.997984	0.000484
28.20065962	0.997937	0.000503
29.00079528	0.997822	0.000547
29.80102875	0.997698	0.000601
30.60129332	0.997577	0.000652
31.40112451	0.997439	0.000716
32.20117913	0.997305	0.000782
32.60082564	0.997238	0.00082
33.40091595	0.997104	0.000901
34.60152936	0.996905	0.001028
35.40079376	0.996774	0.001121
36.20082338	0.996642	0.00122
37.00137281	0.9965	0.001328
37.80121345	0.9964	0.001429
38.60151312	0.9963	0.001523
39.40134109	0.9961	0.001617
39.80103367	0.9961	0.001677
40.20109594	0.996	0.001753
40.60130334	0.9959	0.001829
41.001422	0.9959	0.001868
41.4012088	0.9958	0.001909
41.80182063	0.9957	0.001989
42.20164063	0.9957	0.002056
42.60186235	0.9956	0.002124
43.0007977	0.9955	0.002191
43.40119719	0.9954	0.002258
43.80138487	0.9953	0.00233
44.20114082	0.9953	0.002439
44.60184186	0.9952	0.002538
45.00170593	0.9951	0.002646
45.40215322	0.9951	0.002764
45.80132989	0.995	0.00288
46.20242221	0.995	0.002999
46.60184176	0.995	0.003112
47.00109936	0.9949	0.003212
47.40181985	0.9949	0.003299
47.80205883	0.9949	0.003386
48.20161729	0.9949	0.003439
48.40107745	0.9949	0.003484
48.60219522	0.9949	0.003508
48.80114933	0.9948	0.003558
49.00173899	0.9948	0.003615
49.40200024	0.9948	0.003715
49.80085154	0.9947	0.003815
50.20212981	0.9947	0.003928
50.60166517	0.9947	0.004014
51.00131633	0.9947	0.004102
51.40093694	0.9947	0.004154
51.80254032	0.9947	0.004201
52.20167572	0.9947	0.004234
52.60254561	0.9946	0.00427
53.00282148	0.9945	0.00432
53.4023345	0.9944	0.004397
53.80091126	0.9943	0.004488
54.20074317	0.9942	0.004611
54.60175276	0.9941	0.004751
55.00141957	0.994	0.004927
55.40202869	0.994	0.005155
55.80098114	0.994	0.005336
56.20317316	0.994	0.005501
56.60086738	0.994	0.005607
57.00160912	0.994	0.005651
57.40275013	0.9939	0.005668
57.80149184	0.9937	0.005684
58.00159057	0.9936	0.005733
58.20307952	0.9934	0.005794
58.40322201	0.9931	0.005912
58.60197571	0.9929	0.006071
58.80208679	0.9926	0.006285
59.0007614	0.9923	0.006603
59.20078308	0.9921	0.007001
59.40216558	0.9919	0.007491
59.60205749	0.9917	0.008052
59.80329925	0.9917	0.008807
60.00300053	0.9917	0.009404
60.20111678	0.9919	0.01031
60.40348826	0.9923	0.01091
60.60130016	0.9928	0.01169
60.80339365	0.9934	0.01229
61.00083641	0.9941	0.01272
61.20258663	0.9949	0.01306
61.40263471	0.9957	0.01327
61.60093407	0.9964	0.0134
61.80359902	0.9972	0.01341
62.00140021	0.9979	0.01333
62.20359221	0.9986	0.01321
62.40082541	0.9992	0.01305
62.60247412	0.9999	0.01288
62.80224901	1.0005	0.01275
63.00330301	1.0012	0.01249
63.20242647	1.0019	0.01213
63.40281258	1.0026	0.01158
63.60121063	1.0031	0.01086
63.80085422	1.0034	0.01021
64.00175511	1.0036	0.009511
64.20060066	1.0036	0.009006
64.40068564	1.0036	0.008755
64.60202168	1.0039	0.00886
64.80123347	1.0045	0.00882
65.00167768	1.0053	0.008339
65.20336576	1.0061	0.007446
65.4028591	1.0068	0.006562
65.60357691	1.0071	0.004826
65.802038	1.007	0.003443
66.00170349	1.0063	0.001596
66.20258437	1.0051	0.000661
66.40113539	1.004	0.0003195
66.60088096	1.0031	0.0002705
66.8018319	1.0024	0.0002575
67.00399914	1.0019	0.0002568
67.20375088	1.0015	0.0002626
67.40103289	1.0011	0.0002664
67.9030615	1.0003	0.0002629
68.70072588	0.9993	0.000276
69.50176579	0.9986	0.000285
70.30176911	0.998	0.0002881
71.10408901	0.9974	0.000299
71.90407702	0.997	0.0003158
72.70094992	0.9965	0.0003236
73.50260849	0.9961	0.0003372
74.30432698	0.9958	0.0003469
75.10097523	0.9954	0.0003459
75.90094888	0.9951	0.0003729
76.70390992	0.9948	0.0003756
77.50465712	0.9944	0.0003831
78.30251358	0.9941	0.000403
79.10182468	0.9938	0.0004095
79.90217181	0.9936	0.0004321
80.90323002	0.9932	0.0004447
82.00013228	0.9928	0.0004675
82.80518266	0.9925	0.0004746
83.60364127	0.9923	0.0004929
84.40040844	0.992	0.000513
85.20079714	0.9917	0.0005255
86.00457825	0.9914	0.0005482
86.80543303	0.9912	0.0005392
87.60276973	0.9909	0.0005617
88.50324791	0.9906	0.00059
89.49989172	0.9902	0.00062
90.50602234	0.9899	0.000652
92.0037103	0.9894	0.000699
94.00576238	0.9887	0.00078
95.50469881	0.9883	0.000807
97.0066505	0.9878	0.000833
98.50178756	0.9872	0.000839
100.0033876	0.9867	0.000882
101.0054582	0.9863	0.000918
102.5001653	0.9858	0.000971
104.0048654	0.9852	0.001026
105.5005106	0.9847	0.001092
107.002848	0.9842	0.001151
108.5010939	0.9836	0.001206
110.0028391	0.983	0.001265
111.5066103	0.9825	0.001326
113.0005468	0.9819	0.001388
114.5033247	0.9813	0.00145
116.0031811	0.9808	0.001526
117.5094304	0.9802	0.001575
119.0095988	0.9796	0.001644
120.5017008	0.979	0.001721
122.0076757	0.9784	0.001781
123.5025401	0.9777	0.001892
125.0092761	0.9771	0.001943
126.5015815	0.9765	0.002041
128.0035102	0.9758	0.002139
129.50094	0.9752	0.002237
131.0061285	0.9745	0.002334
132.5042214	0.9739	0.002432
134.0079983	0.9732	0.00253
135.2505727	0.9727	0.002612
136.7573351	0.972	0.00271
138.7623951	0.9711	0.00284
140.7471904	0.9702	0.00297
142.5105747	0.9694	0.003083
144.5037296	0.9685	0.003206
146.501477	0.9675	0.003332
148.5018565	0.9666	0.003481
150.5027919	0.9656	0.003633
152.502091	0.9646	0.003764
154.4974455	0.9636	0.003915
156.5061853	0.9626	0.00409
158.5070314	0.9616	0.004201
160.4973463	0.9605	0.00432
162.495675	0.9594	0.004466
164.5007297	0.9583	0.004603
166.5111469	0.9572	0.004771
168.5025822	0.9561	0.004904
170.4953245	0.955	0.005097
172.5117573	0.9539	0.005333
174.5027445	0.9526	0.0054
176.5150911	0.9514	0.005724
178.4972646	0.9502	0.005674
181.5022691	0.9483	0.006082
185.4940156	0.9459	0.00652
187.5139141	0.9446	0.006664
188.5117835	0.944	0.006751
191.0093976	0.9421	0.006996
193.0015567	0.9408	0.007236
195.005033	0.9394	0.007492
197.0192277	0.938	0.007716
199.011557	0.9366	0.008035
201.0119974	0.9352	0.008326
203.0198133	0.9337	0.008601
206.0222665	0.9315	0.009108
208.006241	0.93	0.009488
210.0074528	0.9285	0.009847
211.0082031	0.9277	0.01005
213.0056522	0.9262	0.01041
215.007717	0.9247	0.01082
217.0059859	0.9232	0.01119
219.0069243	0.9216	0.01161
221.0057041	0.9201	0.01205
222.0069117	0.9193	0.01223
223.0092093	0.9185	0.01247
225.0085296	0.9169	0.01295
227.0066097	0.9154	0.01345
230.0092757	0.913	0.01409
231.0078068	0.9122	0.01433
234.0075118	0.9098	0.01502
236.007538	0.9082	0.01552
238.0100591	0.9066	0.01593
240.009679	0.9049	0.01645
243.0062131	0.9024	0.01715
247.0100012	0.8991	0.01801
250.0084691	0.8964	0.01856
253.0083259	0.8936	0.01933
255.0065817	0.8918	0.01995
258.0101552	0.8889	0.0208
261.0083786	0.8862	0.02168
263.0071488	0.8842	0.02221
266.0091399	0.8814	0.02312
269.0103929	0.8785	0.02422
272.0085123	0.8756	0.02519
275.0070979	0.8727	0.02622
278.0101801	0.8698	0.02717
281.0094966	0.8669	0.0283
285.0080456	0.863	0.0297
288.0071546	0.86	0.03031
291.0085671	0.8568	0.03114
295.0108264	0.8524	0.03253
298.0102875	0.8488	0.03349
302.0100845	0.8441	0.03491
306.0129332	0.8392	0.03663
310.0070011	0.834	0.03809
314.0112451	0.829	0.04046
318.0142099	0.824	0.04274
322.0117913	0.8186	0.04467
326.0082564	0.8136	0.04772
330.0085174	0.8086	0.04962
335.0109433	0.8024	0.05358
339.0139998	0.7969	0.05526
344.0087678	0.7907	0.05904
349.0153136	0.784	0.06254
354.0079376	0.777	0.06544
359.0102794	0.769	0.0691
364.0170288	0.762	0.07286
370.0137281	0.753	0.07911
375.0164847	0.745	0.08429
381.0091884	0.737	0.08933
387.0152329	0.728	0.09736
393.0142327	0.717	0.1033
399.0094294	0.711	0.1133
406.0130334	0.7	0.1189
413.0190879	0.689	0.128
420.0149057	0.679	0.1373
427.0163596	0.669	0.1468
435.0170169	0.657	0.1569
442.0114082	0.647	0.1663
450.0170593	0.631	0.1724
457.3543842	0.614	0.1948
464.9349383	0.604	0.2098
472.77102	0.593	0.2263
480.8757709	0.582	0.244
489.2632493	0.571	0.2631
497.948512	0.56	0.2836
506.9477041	0.549	0.3054
516.2781595	0.539	0.3285
525.9585119	0.528	0.353
536.0088193	0.52	0.384
584.0047103	0.51	0.5135
674.0103289	0.534	0.7416
742.9987415	0.581	0.9035
835.9800418	0.619	1.055
870.0035085	0.646	1.179
919.9688358	0.73	1.301
986.0362653	0.826	1.396
1047.960443	0.903	1.514
1134.970707	1.104	1.761
1192.04115	1.274	1.807
1243.947025	1.418	1.838
1315.06364	1.599	1.846
1411.959913	1.817	1.828
1491.987966	1.975	1.784
1557.981905	2.1	1.742
1595.062395	2.15	1.678
1650.921438	2.201	1.64
1703.07967	2.236	1.59
1744.045576	2.288	1.616
1773.990557	2.331	1.565
1809.988321	2.347	1.515
